File: 4. Notched tensile specimen/Matrix/0.25ux.txt
	0		0
   0.20000E-02  0.100000E-005
   0.40000E-02  0.200000E-005
   0.60000E-02  0.300000E-005
   0.80000E-02  0.400000E-005
   0.10000E-01  0.500000E-005
   0.12000E-01  0.600000E-005
   0.14000E-01  0.700000E-005
   0.16000E-01  0.800000E-005
   0.18000E-01  0.900000E-005
   0.20000E-01  0.100000E-004
   0.22000E-01  0.110000E-004
   0.24000E-01  0.120000E-004
   0.26000E-01  0.130000E-004
   0.28000E-01  0.140000E-004
   0.30000E-01  0.150000E-004
   0.32000E-01  0.160000E-004
   0.34000E-01  0.170000E-004
   0.36000E-01  0.180000E-004
   0.38000E-01  0.190000E-004
   0.40000E-01  0.200000E-004
   0.42000E-01  0.210000E-004
   0.44000E-01  0.220000E-004
   0.46000E-01  0.230000E-004
   0.48000E-01  0.240000E-004
   0.50000E-01  0.250000E-004
   0.52000E-01  0.260000E-004
   0.54000E-01  0.270000E-004
   0.56000E-01  0.280000E-004
   0.58000E-01  0.290000E-004
   0.60000E-01  0.300000E-004
   0.62000E-01  0.310000E-004
   0.64000E-01  0.320000E-004
   0.66000E-01  0.330000E-004
   0.68000E-01  0.340000E-004
   0.70000E-01  0.350000E-004
   0.72000E-01  0.360000E-004
   0.74000E-01  0.370000E-004
   0.76000E-01  0.380000E-004
   0.78000E-01  0.390000E-004
   0.80000E-01  0.400000E-004
   0.82000E-01  0.410000E-004
   0.84000E-01  0.420000E-004
   0.86000E-01  0.430000E-004
   0.88000E-01  0.440000E-004
   0.90000E-01  0.450000E-004
   0.92000E-01  0.460000E-004
   0.94000E-01  0.470000E-004
   0.96000E-01  0.480000E-004
   0.98000E-01  0.490000E-004
   0.10000      0.500000E-004
   0.10200      0.510000E-004
   0.10400      0.520000E-004
   0.10600      0.530000E-004
   0.10800      0.540000E-004
   0.11000      0.550000E-004
   0.11200      0.560000E-004
   0.11400      0.570000E-004
   0.11600      0.580000E-004
   0.11800      0.590000E-004
   0.12000      0.600000E-004
   0.12200      0.610000E-004
   0.12400      0.620000E-004
   0.12600      0.630000E-004
   0.12800      0.640000E-004
   0.13000      0.650000E-004
   0.13200      0.660000E-004
   0.13400      0.670000E-004
   0.13600      0.680000E-004
   0.13800      0.690000E-004
   0.14000      0.700000E-004
   0.14200      0.710000E-004
   0.14400      0.720000E-004
   0.14600      0.730000E-004
   0.14800      0.740000E-004
   0.15000      0.750000E-004
   0.15200      0.760000E-004
   0.15400      0.770000E-004
   0.15600      0.780000E-004
   0.15800      0.790000E-004
   0.16000      0.800000E-004
   0.16200      0.810000E-004
   0.16400      0.820000E-004
   0.16600      0.830000E-004
   0.16800      0.840000E-004
   0.17000      0.850000E-004
   0.17200      0.860000E-004
   0.17400      0.870000E-004
   0.17600      0.880000E-004
   0.17800      0.890000E-004
   0.18000      0.900000E-004
   0.18200      0.910000E-004
   0.18400      0.920000E-004
   0.18600      0.930000E-004
   0.18800      0.940000E-004
   0.19000      0.950000E-004
   0.19200      0.960000E-004
   0.19400      0.970000E-004
   0.19600      0.980000E-004
   0.19800      0.990000E-004
   0.20000      0.100000E-003
   0.20200      0.101000E-003
   0.20400      0.102000E-003
   0.20600      0.103000E-003
   0.20800      0.104000E-003
   0.21000      0.105000E-003
   0.21200      0.106000E-003
   0.21400      0.107000E-003
   0.21600      0.108000E-003
   0.21800      0.109000E-003
   0.22000      0.110000E-003
   0.22200      0.111000E-003
   0.22400      0.112000E-003
   0.22600      0.113000E-003
   0.22800      0.114000E-003
   0.23000      0.115000E-003
   0.23200      0.116000E-003
   0.23400      0.117000E-003
   0.23600      0.118000E-003
   0.23800      0.119000E-003
   0.24000      0.120000E-003
   0.24200      0.121000E-003
   0.24400      0.122000E-003
   0.24600      0.123000E-003
   0.24800      0.124000E-003
   0.25000      0.125000E-003
   0.25200      0.126000E-003
   0.25400      0.127000E-003
   0.25600      0.128000E-003
   0.25800      0.129000E-003
   0.26000      0.130000E-003
   0.26200      0.131000E-003
   0.26400      0.132000E-003
   0.26600      0.133000E-003
   0.26800      0.134000E-003
   0.27000      0.135000E-003
   0.27200      0.136000E-003
   0.27400      0.137000E-003
   0.27600      0.138000E-003
   0.27800      0.139000E-003
   0.28000      0.140000E-003
   0.28200      0.141000E-003
   0.28400      0.142000E-003
   0.28600      0.143000E-003
   0.28800      0.144000E-003
   0.29000      0.145000E-003
   0.29200      0.146000E-003
   0.29400      0.147000E-003
   0.29600      0.148000E-003
   0.29800      0.149000E-003
   0.30000      0.150000E-003
   0.30200      0.151000E-003
   0.30400      0.152000E-003
   0.30600      0.153000E-003
   0.30800      0.154000E-003
   0.31000      0.155000E-003
   0.31200      0.156000E-003
   0.31400      0.157000E-003
   0.31600      0.158000E-003
   0.31800      0.159000E-003
   0.32000      0.160000E-003
   0.32200      0.161000E-003
   0.32400      0.162000E-003
   0.32600      0.163000E-003
   0.32800      0.164000E-003
   0.33000      0.165000E-003
   0.33200      0.166000E-003
   0.33400      0.167000E-003
   0.33600      0.168000E-003
   0.33800      0.169000E-003
   0.34000      0.170000E-003
   0.34200      0.171000E-003
   0.34400      0.172000E-003
   0.34600      0.173000E-003
   0.34800      0.174000E-003
   0.35000      0.175000E-003
   0.35200      0.176000E-003
   0.35400      0.177000E-003
   0.35600      0.178000E-003
   0.35800      0.179000E-003
   0.36000      0.180000E-003
   0.36200      0.181000E-003
   0.36400      0.182000E-003
   0.36600      0.183000E-003
   0.36800      0.184000E-003
   0.37000      0.185000E-003
   0.37200      0.186000E-003
   0.37400      0.187000E-003
   0.37600      0.188000E-003
   0.37800      0.189000E-003
   0.38000      0.190000E-003
   0.38200      0.191000E-003
   0.38400      0.192000E-003
   0.38600      0.193000E-003
   0.38800      0.194000E-003
   0.39000      0.195000E-003
   0.39200      0.196000E-003
   0.39400      0.197000E-003
   0.39600      0.198000E-003
   0.39800      0.199000E-003
   0.40000      0.200000E-003
   0.40200      0.201000E-003
   0.40400      0.202000E-003
   0.40600      0.203000E-003
   0.40800      0.204000E-003
   0.41000      0.205000E-003
   0.41200      0.206000E-003
   0.41400      0.207000E-003
   0.41600      0.208000E-003
   0.41800      0.209000E-003
   0.42000      0.210000E-003
   0.42200      0.211000E-003
   0.42400      0.212000E-003
   0.42600      0.213000E-003
   0.42800      0.214000E-003
   0.43000      0.215000E-003
   0.43200      0.216000E-003
   0.43400      0.217000E-003
   0.43600      0.218000E-003
   0.43800      0.219000E-003
   0.44000      0.220000E-003
   0.44200      0.221000E-003
   0.44400      0.222000E-003
   0.44600      0.223000E-003
   0.44800      0.224000E-003
   0.45000      0.225000E-003
   0.45200      0.226000E-003
   0.45400      0.227000E-003
   0.45600      0.228000E-003
   0.45800      0.229000E-003
   0.46000      0.230000E-003
   0.46145      0.230725E-003