File: 4. Notched tensile specimen/Matrix/0.25fx.txt
	0	   0
   0.20000E-02   31.6973
   0.40000E-02   63.3947
   0.60000E-02   95.0920
   0.80000E-02   126.789
   0.10000E-01   158.487
   0.12000E-01   190.184
   0.14000E-01   221.881
   0.16000E-01   253.579
   0.18000E-01   285.276
   0.20000E-01   316.973
   0.22000E-01   348.671
   0.24000E-01   380.368
   0.26000E-01   412.065
   0.28000E-01   443.763
   0.30000E-01   475.460
   0.32000E-01   507.157
   0.34000E-01   538.855
   0.36000E-01   570.552
   0.38000E-01   602.249
   0.40000E-01   633.947
   0.42000E-01   665.644
   0.44000E-01   697.342
   0.46000E-01   729.039
   0.48000E-01   760.736
   0.50000E-01   792.434
   0.52000E-01   824.131
   0.54000E-01   855.828
   0.56000E-01   887.526
   0.58000E-01   919.223
   0.60000E-01   950.920
   0.62000E-01   982.618
   0.64000E-01   1014.31
   0.66000E-01   1046.01
   0.68000E-01   1077.71
   0.70000E-01   1109.41
   0.72000E-01   1141.10
   0.74000E-01   1172.80
   0.76000E-01   1204.50
   0.78000E-01   1236.20
   0.80000E-01   1267.89
   0.82000E-01   1299.59
   0.84000E-01   1331.29
   0.86000E-01   1362.99
   0.88000E-01   1394.68
   0.90000E-01   1426.38
   0.92000E-01   1458.08
   0.94000E-01   1489.78
   0.96000E-01   1521.47
   0.98000E-01   1553.17
   0.10000       1584.87
   0.10200       1616.56
   0.10400       1648.26
   0.10600       1679.96
   0.10800       1711.66
   0.11000       1743.35
   0.11200       1775.05
   0.11400       1806.75
   0.11600       1838.45
   0.11800       1870.14
   0.12000       1901.84
   0.12200       1933.54
   0.12400       1965.24
   0.12600       1996.93
   0.12800       2028.63
   0.13000       2060.33
   0.13200       2092.02
   0.13400       2123.72
   0.13600       2155.42
   0.13800       2187.12
   0.14000       2218.81
   0.14200       2250.51
   0.14400       2282.21
   0.14600       2313.91
   0.14800       2345.60
   0.15000       2377.30
   0.15200       2409.00
   0.15400       2440.62
   0.15600       2472.16
   0.15800       2503.69
   0.16000       2535.23
   0.16200       2566.77
   0.16400       2598.31
   0.16600       2629.85
   0.16800       2661.38
   0.17000       2692.92
   0.17200       2724.46
   0.17400       2756.00
   0.17600       2787.53
   0.17800       2819.07
   0.18000       2850.61
   0.18200       2882.14
   0.18400       2913.68
   0.18600       2945.22
   0.18800       2976.75
   0.19000       3008.24
   0.19200       3039.63
   0.19400       3070.99
   0.19600       3102.34
   0.19800       3133.69
   0.20000       3165.05
   0.20200       3196.40
   0.20400       3227.76
   0.20600       3259.11
   0.20800       3290.46
   0.21000       3321.82
   0.21200       3353.17
   0.21400       3384.52
   0.21600       3415.67
   0.21800       3446.69
   0.22000       3477.72
   0.22200       3508.75
   0.22400       3539.78
   0.22600       3570.81
   0.22800       3601.84
   0.23000       3632.87
   0.23200       3663.90
   0.23400       3694.92
   0.23600       3725.92
   0.23800       3756.75
   0.24000       3787.51
   0.24200       3818.27
   0.24400       3849.04
   0.24600       3879.80
   0.24800       3910.56
   0.25000       3941.32
   0.25200       3972.08
   0.25400       4002.68
   0.25600       4033.01
   0.25800       4063.34
   0.26000       4093.68
   0.26200       4124.01
   0.26400       4154.35
   0.26600       4184.68
   0.26800       4215.02
   0.27000       4245.19
   0.27200       4275.19
   0.27400       4305.19
   0.27600       4335.19
   0.27800       4365.19
   0.28000       4395.19
   0.28200       4425.17
   0.28400       4454.64
   0.28600       4484.11
   0.28800       4513.59
   0.29000       4543.06
   0.29200       4572.54
   0.29400       4602.01
   0.29600       4631.16
   0.29800       4660.23
   0.30000       4689.31
   0.30200       4718.39
   0.30400       4747.47
   0.30600       4776.12
   0.30800       4804.56
   0.31000       4833.01
   0.31200       4861.46
   0.31400       4889.92
   0.31600       4918.09
   0.31800       4946.06
   0.32000       4974.05
   0.32200       5002.04
   0.32400       5029.79
   0.32600       5057.01
   0.32800       5084.26
   0.33000       5111.52
   0.33200       5138.74
   0.33400       5165.43
   0.33600       5192.15
   0.33800       5218.88
   0.34000       5245.19
   0.34200       5271.02
   0.34400       5296.89
   0.34600       5322.78
   0.34800       5348.09
   0.35000       5373.35
   0.35200       5398.63
   0.35400       5423.10
   0.35600       5447.36
   0.35800       5471.68
   0.36000       5495.48
   0.36200       5519.07
   0.36400       5542.69
   0.36600       5565.13
   0.36800       5587.64
   0.37000       5609.92
   0.37200       5631.61
   0.37400       5653.38
   0.37600       5673.83
   0.37800       5694.34
   0.38000       5714.31
   0.38200       5733.93
   0.38400       5752.82
   0.38600       5771.00
   0.38800       5788.84
   0.39000       5806.11
   0.39200       5822.43
   0.39400       5838.15
   0.39600       5853.06
   0.39800       5867.59
   0.40000       5880.45
   0.40200       5892.93
   0.40400       5904.80
   0.40600       5914.60
   0.40800       5923.94
   0.41000       5932.28
   0.41200       5938.79
   0.41400       5944.23
   0.41600       5948.01
   0.41800       5950.33
   0.42000       5951.02
   0.42200       5949.61
   0.42400       5946.48
   0.42600       5940.75
   0.42800       5932.92
   0.43000       5922.29
   0.43200       5908.92
   0.43400       5892.82
   0.43600       5872.41
   0.43800       5848.66
   0.44000       5821.69
   0.44200       5788.10
   0.44400       5750.17
   0.44600       5705.94
   0.44800       5656.12
   0.45000       5597.60
   0.45200       5530.68
   0.45400       5452.88
   0.45600       5360.28
   0.45800       5245.98
   0.46000       5104.84
   0.46145       4629.87