File: 4. Notched tensile specimen/Matrix/1fx.txt
	0	   0
   0.20000E-02   31.9686
   0.40000E-02   63.9372
   0.60000E-02   95.9058
   0.80000E-02   127.874
   0.10000E-01   159.843
   0.12000E-01   191.812
   0.14000E-01   223.780
   0.16000E-01   255.749
   0.18000E-01   287.717
   0.20000E-01   319.686
   0.22000E-01   351.654
   0.24000E-01   383.623
   0.26000E-01   415.592
   0.28000E-01   447.560
   0.30000E-01   479.529
   0.32000E-01   511.497
   0.34000E-01   543.466
   0.36000E-01   575.435
   0.38000E-01   607.403
   0.40000E-01   639.372
   0.42000E-01   671.340
   0.44000E-01   703.309
   0.46000E-01   735.278
   0.48000E-01   767.246
   0.50000E-01   799.215
   0.52000E-01   831.183
   0.54000E-01   863.152
   0.56000E-01   895.120
   0.58000E-01   927.089
   0.60000E-01   959.058
   0.62000E-01   991.026
   0.64000E-01   1022.99
   0.66000E-01   1054.96
   0.68000E-01   1086.93
   0.70000E-01   1118.90
   0.72000E-01   1150.87
   0.74000E-01   1182.84
   0.76000E-01   1214.81
   0.78000E-01   1246.77
   0.80000E-01   1278.74
   0.82000E-01   1310.71
   0.84000E-01   1342.68
   0.86000E-01   1374.65
   0.88000E-01   1406.62
   0.90000E-01   1438.59
   0.92000E-01   1470.56
   0.94000E-01   1502.52
   0.96000E-01   1534.49
   0.98000E-01   1566.46
   0.10000       1598.43
   0.10200       1630.40
   0.10400       1662.37
   0.10600       1694.34
   0.10800       1726.30
   0.11000       1758.27
   0.11200       1790.24
   0.11400       1822.21
   0.11600       1854.18
   0.11800       1886.15
   0.12000       1918.12
   0.12200       1950.08
   0.12400       1982.05
   0.12600       2014.02
   0.12800       2045.99
   0.13000       2077.96
   0.13200       2109.93
   0.13400       2141.90
   0.13600       2173.86
   0.13800       2205.83
   0.14000       2237.80
   0.14200       2269.77
   0.14400       2301.74
   0.14600       2333.71
   0.14800       2365.68
   0.15000       2397.64
   0.15200       2429.61
   0.15400       2461.58
   0.15600       2493.55
   0.15800       2525.52
   0.16000       2557.49
   0.16200       2589.46
   0.16400       2621.42
   0.16600       2653.39
   0.16800       2685.36
   0.17000       2717.33
   0.17200       2749.30
   0.17400       2781.27
   0.17600       2813.24
   0.17800       2845.20
   0.18000       2877.17
   0.18200       2909.14
   0.18400       2941.11
   0.18600       2973.08
   0.18800       3005.05
   0.19000       3037.02
   0.19200       3068.60
   0.19400       3100.12
   0.19600       3131.64
   0.19800       3163.15
   0.20000       3194.67
   0.20200       3225.80
   0.20400       3256.45
   0.20600       3287.13
   0.20800       3317.79
   0.21000       3348.46
   0.21200       3379.13
   0.21400       3409.80
   0.21600       3440.47
   0.21800       3471.14
   0.22000       3501.81
   0.22200       3532.48
   0.22400       3563.15
   0.22600       3593.82
   0.22800       3624.49
   0.23000       3655.16
   0.23200       3685.83
   0.23400       3716.50
   0.23600       3747.17
   0.23800       3777.84
   0.24000       3808.51
   0.24200       3839.18
   0.24400       3869.85
   0.24600       3900.52
   0.24800       3931.19
   0.25000       3961.86
   0.25200       3992.53
   0.25400       4023.20
   0.25600       4053.87
   0.25800       4084.54
   0.26000       4115.21
   0.26200       4145.89
   0.26400       4176.56
   0.26600       4207.23
   0.26800       4237.90
   0.27000       4268.57
   0.27200       4299.24
   0.27400       4329.92
   0.27600       4360.27
   0.27800       4390.41
   0.28000       4420.47
   0.28200       4450.52
   0.28400       4480.58
   0.28600       4510.64
   0.28800       4540.70
   0.29000       4570.73
   0.29200       4600.52
   0.29400       4630.31
   0.29600       4660.10
   0.29800       4689.89
   0.30000       4719.52
   0.30200       4748.72
   0.30400       4777.94
   0.30600       4807.16
   0.30800       4836.37
   0.31000       4865.59
   0.31200       4894.81
   0.31400       4924.03
   0.31600       4953.24
   0.31800       4982.46
   0.32000       5011.65
   0.32200       5040.82
   0.32400       5069.99
   0.32600       5099.13
   0.32800       5128.27
   0.33000       5157.41
   0.33200       5186.55
   0.33400       5215.69
   0.33600       5244.82
   0.33800       5273.89
   0.34000       5302.44
   0.34200       5330.53
   0.34400       5357.64
   0.34600       5384.78
   0.34800       5411.93
   0.35000       5439.09
   0.35200       5466.24
   0.35400       5493.40
   0.35600       5520.54
   0.35800       5547.68
   0.36000       5574.81
   0.36200       5601.95
   0.36400       5629.08
   0.36600       5656.15
   0.36800       5683.23
   0.37000       5709.64
   0.37200       5736.04
   0.37400       5762.45
   0.37600       5788.62
   0.37800       5813.83
   0.38000       5839.11
   0.38200       5864.40
   0.38400       5889.65
   0.38600       5914.78
   0.38800       5939.95
   0.39000       5965.05
   0.39200       5989.92
   0.39400       6014.12
   0.39600       6036.44
   0.39800       6058.49
   0.40000       6080.55
   0.40200       6102.58
   0.40400       6124.60
   0.40600       6146.64
   0.40800       6168.70
   0.41000       6190.77
   0.41200       6212.85
   0.41400       6234.37
   0.41600       6255.49
   0.41800       6276.25
   0.42000       6295.87
   0.42200       6315.57
   0.42400       6335.16
   0.42600       6354.73
   0.42800       6373.97
   0.43000       6393.19
   0.43200       6410.50
   0.43400       6425.67
   0.43600       6441.03
   0.43800       6456.46
   0.44000       6471.96
   0.44200       6487.52
   0.44400       6502.91
   0.44600       6517.25
   0.44800       6529.77
   0.45000       6542.26
   0.45200       6554.83
   0.45400       6567.26
   0.45600       6578.80
   0.45800       6585.42
   0.46000       6592.50
   0.46200       6599.71
   0.46400       6607.02
   0.46600       6613.78
   0.46800       6617.78
   0.47000       6621.25
   0.47200       6625.07
   0.47400       6628.42
   0.47600       6624.97
   0.47800       6622.05
   0.48000       6619.61
   0.48200       6616.42
   0.48400       6608.84
   0.48600       6601.87
   0.48800       6594.66
   0.49000       6579.14
   0.49200       6564.54
   0.49400       6549.66
   0.49600       6529.35
   0.49800       6510.10
   0.50000       6484.67
   0.50200       6454.92
   0.50400       6424.24
   0.50600       6388.38
   0.50800       6347.49
   0.51000       6297.23
   0.51200       6238.69
   0.51345       6025.97
   0.51354       5976.30