File: 4. Notched tensile specimen/Matrix/h=0.25mm/e11-2.txt
        0		0
   0.10000E-02  0.641429E-004
   0.20000E-02  0.128286E-003
   0.30000E-02  0.192429E-003
   0.40000E-02  0.256572E-003
   0.50000E-02  0.320714E-003
   0.60000E-02  0.384857E-003
   0.70000E-02  0.449000E-003
   0.80000E-02  0.513143E-003
   0.90000E-02  0.577286E-003
   0.10000E-01  0.641429E-003
   0.11000E-01  0.705572E-003
   0.12000E-01  0.769715E-003
   0.13000E-01  0.833858E-003
   0.14000E-01  0.898000E-003
   0.15000E-01  0.962143E-003
   0.16000E-01  0.102629E-002
   0.17000E-01  0.109043E-002
   0.18000E-01  0.115457E-002
   0.19000E-01  0.121871E-002
   0.20000E-01  0.128286E-002

   0.21000E-01  0.134700E-002
   0.22000E-01  0.141114E-002
   0.23000E-01  0.147529E-002
   0.24000E-01  0.153943E-002
   0.25000E-01  0.160357E-002
   0.26000E-01  0.166772E-002
   0.27000E-01  0.173186E-002
   0.28000E-01  0.179600E-002
   0.29000E-01  0.186014E-002
   0.30000E-01  0.192429E-002
   0.31000E-01  0.198843E-002
   0.32000E-01  0.205257E-002
   0.33000E-01  0.211672E-002
   0.34000E-01  0.218086E-002
   0.35000E-01  0.224500E-002
   0.36000E-01  0.230914E-002
   0.37000E-01  0.237329E-002
   0.38000E-01  0.243743E-002
   0.39000E-01  0.250157E-002
   0.40000E-01  0.256572E-002

   0.41000E-01  0.262986E-002
   0.42000E-01  0.269400E-002
   0.43000E-01  0.275814E-002
   0.44000E-01  0.282229E-002
   0.45000E-01  0.288643E-002
   0.46000E-01  0.295057E-002
   0.47000E-01  0.301472E-002
   0.48000E-01  0.307886E-002
   0.49000E-01  0.314300E-002
   0.50000E-01  0.320714E-002
   0.51000E-01  0.327129E-002
   0.52000E-01  0.333543E-002
   0.53000E-01  0.339957E-002
   0.54000E-01  0.346372E-002
   0.55000E-01  0.352786E-002
   0.56000E-01  0.359200E-002
   0.57000E-01  0.365614E-002
   0.58000E-01  0.372029E-002
   0.59000E-01  0.378443E-002
   0.60000E-01  0.384857E-002

   0.61000E-01  0.391272E-002
   0.62000E-01  0.397686E-002
   0.63000E-01  0.404100E-002
   0.64000E-01  0.410515E-002
   0.65000E-01  0.416929E-002
   0.66000E-01  0.423343E-002
   0.67000E-01  0.429757E-002
   0.68000E-01  0.436172E-002
   0.69000E-01  0.442586E-002
   0.70000E-01  0.449000E-002
   0.71000E-01  0.455415E-002
   0.72000E-01  0.461829E-002
   0.73000E-01  0.468243E-002
   0.74000E-01  0.474657E-002
   0.75000E-01  0.481072E-002
   0.76000E-01  0.487486E-002
   0.77000E-01  0.493900E-002
   0.78000E-01  0.500315E-002
   0.79000E-01  0.506729E-002
   0.80000E-01  0.513143E-002

   0.81000E-01  0.519557E-002
   0.82000E-01  0.525972E-002
   0.83000E-01  0.532386E-002
   0.84000E-01  0.538800E-002
   0.85000E-01  0.545215E-002
   0.86000E-01  0.551629E-002
   0.87000E-01  0.558043E-002
   0.88000E-01  0.564457E-002
   0.89000E-01  0.570872E-002
   0.90000E-01  0.577286E-002
   0.91000E-01  0.583700E-002
   0.92000E-01  0.590115E-002
   0.93000E-01  0.596529E-002
   0.94000E-01  0.602943E-002
   0.95000E-01  0.609357E-002
   0.96000E-01  0.615772E-002
   0.97000E-01  0.622186E-002
   0.98000E-01  0.628600E-002
   0.99000E-01  0.635015E-002
   0.10000      0.641429E-002

   0.10100      0.647843E-002
   0.10200      0.654257E-002
   0.10300      0.660672E-002
   0.10400      0.667086E-002
   0.10500      0.673500E-002
   0.10600      0.679915E-002
   0.10700      0.686329E-002
   0.10800      0.692743E-002
   0.10900      0.699158E-002
   0.11000      0.705572E-002
   0.11100      0.711986E-002
   0.11200      0.718400E-002
   0.11300      0.724815E-002
   0.11400      0.731229E-002
   0.11500      0.737643E-002
   0.11600      0.744058E-002
   0.11700      0.750472E-002
   0.11800      0.756886E-002
   0.11900      0.763300E-002
   0.12000      0.769715E-002

   0.12100      0.776129E-002
   0.12200      0.782543E-002
   0.12300      0.788958E-002
   0.12400      0.795372E-002
   0.12500      0.801786E-002
   0.12600      0.808200E-002
   0.12700      0.814615E-002
   0.12800      0.821029E-002
   0.12900      0.827443E-002
   0.13000      0.833858E-002
   0.13100      0.840272E-002
   0.13200      0.846686E-002
   0.13300      0.853100E-002
   0.13400      0.859515E-002
   0.13500      0.865929E-002
   0.13600      0.872343E-002
   0.13700      0.878758E-002
   0.13800      0.885172E-002
   0.13900      0.891586E-002
   0.14000      0.898001E-002

   0.14100      0.904415E-002
   0.14200      0.910829E-002
   0.14300      0.917243E-002
   0.14400      0.923658E-002
   0.14500      0.930072E-002
   0.14600      0.936486E-002
   0.14700      0.942900E-002
   0.14800      0.949315E-002
   0.14900      0.955729E-002
   0.15000      0.962143E-002
   0.15100      0.968558E-002
   0.15200      0.974972E-002
   0.15300      0.982595E-002
   0.15400      0.992256E-002
   0.15500      0.100326E-001
   0.15600      0.101431E-001
   0.15700      0.102533E-001
   0.15800      0.103633E-001
   0.15900      0.104734E-001
   0.16000      0.105835E-001

   0.16100      0.106936E-001
   0.16200      0.108037E-001
   0.16300      0.109138E-001
   0.16400      0.110239E-001
   0.16500      0.111340E-001
   0.16600      0.112440E-001
   0.16700      0.113541E-001
   0.16800      0.114642E-001
   0.16900      0.115743E-001
   0.17000      0.116844E-001
   0.17100      0.117944E-001
   0.17200      0.119045E-001
   0.17300      0.120146E-001
   0.17400      0.121246E-001
   0.17500      0.122347E-001
   0.17600      0.123448E-001
   0.17700      0.124548E-001
   0.17800      0.125649E-001
   0.17900      0.126750E-001
   0.18000      0.127850E-001

   0.18100      0.128951E-001
   0.18200      0.130051E-001
   0.18300      0.131152E-001
   0.18400      0.132252E-001
   0.18500      0.133353E-001
   0.18600      0.134453E-001
   0.18700      0.135554E-001
   0.18800      0.136654E-001
   0.18900      0.138018E-001
   0.19000      0.139472E-001
   0.19100      0.141122E-001
   0.19200      0.143212E-001
   0.19300      0.145302E-001
   0.19400      0.147415E-001
   0.19500      0.149512E-001
   0.19600      0.151608E-001
   0.19700      0.153704E-001
   0.19800      0.155800E-001
   0.19900      0.157896E-001
   0.20000      0.159993E-001

   0.20100      0.162088E-001
   0.20200      0.164184E-001
   0.20300      0.166280E-001
   0.20400      0.168376E-001
   0.20500      0.170471E-001
   0.20600      0.172567E-001
   0.20700      0.174662E-001
   0.20800      0.176757E-001
   0.20900      0.178852E-001
   0.21000      0.180947E-001
   0.21100      0.183042E-001
   0.21200      0.185137E-001
   0.21300      0.187232E-001
   0.21400      0.189326E-001
   0.21500      0.191914E-001
   0.21600      0.196173E-001
   0.21700      0.200410E-001
   0.21800      0.204567E-001
   0.21900      0.208743E-001
   0.22000      0.212919E-001

   0.22100      0.217103E-001
   0.22200      0.221288E-001
   0.22300      0.225477E-001
   0.22400      0.229668E-001
   0.22500      0.233862E-001
   0.22600      0.238060E-001
   0.22700      0.242259E-001
   0.22800      0.246461E-001
   0.22900      0.250665E-001
   0.23000      0.254872E-001
   0.23100      0.259080E-001
   0.23200      0.263290E-001
   0.23300      0.267503E-001
   0.23400      0.271717E-001
   0.23500      0.275932E-001
   0.23600      0.280434E-001
   0.23700      0.285286E-001
   0.23800      0.290756E-001
   0.23900      0.296265E-001
   0.24000      0.301755E-001

   0.24100      0.307247E-001
   0.24200      0.312742E-001
   0.24300      0.318240E-001
   0.24400      0.323742E-001
   0.24500      0.329247E-001
   0.24600      0.334755E-001
   0.24700      0.340265E-001
   0.24800      0.345778E-001
   0.24900      0.351294E-001
   0.25000      0.356811E-001
   0.25100      0.362331E-001
   0.25200      0.367852E-001
   0.25300      0.373400E-001
   0.25400      0.380018E-001
   0.25500      0.387096E-001
   0.25600      0.394159E-001
   0.25700      0.401192E-001
   0.25800      0.408223E-001
   0.25900      0.415253E-001
   0.26000      0.422284E-001

   0.26100      0.429314E-001
   0.26200      0.436342E-001
   0.26300      0.443369E-001
   0.26400      0.450395E-001
   0.26500      0.457420E-001
   0.26600      0.464443E-001
   0.26700      0.471465E-001
   0.26800      0.478486E-001
   0.26900      0.485728E-001
   0.27000      0.493534E-001
   0.27100      0.501621E-001
   0.27200      0.509704E-001
   0.27300      0.517768E-001
   0.27400      0.525828E-001
   0.27500      0.533887E-001
   0.27600      0.541945E-001
   0.27700      0.550000E-001
   0.27800      0.558053E-001
   0.27900      0.566105E-001
   0.28000      0.574154E-001

   0.28100      0.582201E-001
   0.28200      0.590392E-001
   0.28300      0.599867E-001
   0.28400      0.609505E-001
   0.28500      0.619049E-001
   0.28600      0.628575E-001
   0.28700      0.638100E-001
   0.28800      0.647620E-001
   0.28900      0.657135E-001
   0.29000      0.666645E-001
   0.29100      0.676151E-001
   0.29200      0.685652E-001
   0.29300      0.695148E-001
   0.29400      0.704701E-001
   0.29500      0.714822E-001
   0.29600      0.725363E-001
   0.29700      0.735915E-001
   0.29800      0.746433E-001
   0.29900      0.756942E-001
   0.30000      0.767447E-001

   0.30100      0.777946E-001
   0.30200      0.788440E-001
   0.30300      0.798929E-001
   0.30400      0.809411E-001
   0.30500      0.820412E-001
   0.30600      0.832357E-001
   0.30700      0.844400E-001
   0.30800      0.856367E-001
   0.30900      0.868313E-001
   0.31000      0.880250E-001
   0.31100      0.892180E-001
   0.31200      0.904099E-001
   0.31300      0.916008E-001
   0.31400      0.927906E-001
   0.31500      0.940036E-001
   0.31600      0.952933E-001
   0.31700      0.965932E-001
   0.31800      0.978855E-001
   0.31900      0.991761E-001
   0.32000      0.100466

   0.32100      0.101754
   0.32200      0.103041
   0.32300      0.104327
   0.32400      0.105713
   0.32500      0.107157
   0.32600      0.108600
   0.32700      0.110036
   0.32800      0.111470
   0.32900      0.112903
   0.33000      0.114333
   0.33100      0.115762
   0.33200      0.117211
   0.33300      0.118743
   0.33400      0.120285
   0.33500      0.121817
   0.33600      0.123347
   0.33700      0.124874
   0.33800      0.126400
   0.33900      0.127929
   0.34000      0.129598

   0.34100      0.131293
   0.34200      0.132974
   0.34300      0.134651
   0.34400      0.136325
   0.34500      0.137995
   0.34600      0.139666
   0.34700      0.141416
   0.34800      0.143199
   0.34900      0.144977
   0.35000      0.146748
   0.35100      0.148516
   0.35200      0.150281
   0.35300      0.152141
   0.35400      0.154076
   0.35500      0.156009
   0.35600      0.157932
   0.35700      0.159850
   0.35800      0.161762
   0.35900      0.163719
   0.36000      0.165745

   0.36100      0.167774
   0.36200      0.169791
   0.36300      0.171802
   0.36400      0.173816
   0.36500      0.175991
   0.36600      0.178187
   0.36700      0.180362
   0.36800      0.182528
   0.36900      0.184687
   0.37000      0.186921
   0.37100      0.189202
   0.37200      0.191477
   0.37300      0.193738
   0.37400      0.195995
   0.37500      0.198416
   0.37600      0.200868
   0.37700      0.203296
   0.37800      0.205711
   0.37900      0.208150
   0.38000      0.210681

   0.38100      0.213217
   0.38200      0.215733
   0.38300      0.218256
   0.38400      0.220949
   0.38500      0.223659
   0.38600      0.226339
   0.38700      0.229008
   0.38800      0.231785
   0.38900      0.234583
   0.39000      0.237357
   0.39100      0.240166
   0.39200      0.243127
   0.39300      0.246094
   0.39400      0.249027
   0.39500      0.252021
   0.39600      0.255079
   0.39700      0.258121
   0.39800      0.261193
   0.39900      0.264422
   0.40000      0.267652

   0.40100      0.270844
   0.40200      0.274155
   0.40300      0.277477
   0.40400      0.280763
   0.40500      0.284254
   0.40600      0.287762
   0.40700      0.291224
   0.40800      0.294810
   0.40900      0.298395
   0.41000      0.302020
   0.41100      0.305791
   0.41200      0.309542
   0.41300      0.313359
   0.41400      0.317210
   0.41500      0.321087
   0.41600      0.325129
   0.41700      0.329141
   0.41800      0.333255
   0.41900      0.337366
   0.42000      0.341600

   0.42100      0.345905
   0.42200      0.350239
   0.42300      0.354620
   0.42400      0.359079
   0.42500      0.363652
   0.42600      0.368258
   0.42700      0.372897
   0.42800      0.377660
   0.42900      0.382485
   0.43000      0.387393
   0.43100      0.392268
   0.43200      0.397401
   0.43300      0.402548
   0.43400      0.407686
   0.43500      0.413030
   0.43600      0.418411
   0.43700      0.423802
   0.43800      0.429404
   0.43900      0.435056
   0.44000      0.440644

   0.44100      0.446560
   0.44200      0.452498
   0.44300      0.458505
   0.44400      0.464612
   0.44500      0.470652
   0.44600      0.477208
   0.44700      0.483579
   0.44800      0.490052
   0.44900      0.496664
   0.45000      0.503485
   0.45100      0.510113
   0.45200      0.517355
   0.45300      0.524846
   0.45400      0.531721
   0.45500      0.539295
   0.45600      0.546812
   0.45700      0.554610
   0.45800      0.563041
   0.45900      0.571044
   0.46000      0.580262

   0.46100      0.591027
   0.46145      0.616772