File: 4. Notched tensile specimen/Matrix/h=0.25mm/e11-1.txt
          0		0
   0.10000E-02  0.923969E-004
   0.20000E-02  0.184794E-003
   0.30000E-02  0.277191E-003
   0.40000E-02  0.369588E-003
   0.50000E-02  0.461985E-003
   0.60000E-02  0.554382E-003
   0.70000E-02  0.646778E-003
   0.80000E-02  0.739175E-003
   0.90000E-02  0.831572E-003
   0.10000E-01  0.923969E-003
   0.11000E-01  0.101637E-002
   0.12000E-01  0.110876E-002
   0.13000E-01  0.120116E-002
   0.14000E-01  0.129356E-002
   0.15000E-01  0.138595E-002
   0.16000E-01  0.147835E-002
   0.17000E-01  0.157075E-002
   0.18000E-01  0.166314E-002
   0.19000E-01  0.175554E-002
   0.20000E-01  0.184794E-002

   0.21000E-01  0.194034E-002
   0.22000E-01  0.203273E-002
   0.23000E-01  0.212513E-002
   0.24000E-01  0.221753E-002
   0.25000E-01  0.230992E-002
   0.26000E-01  0.240232E-002
   0.27000E-01  0.249472E-002
   0.28000E-01  0.258711E-002
   0.29000E-01  0.267951E-002
   0.30000E-01  0.277191E-002
   0.31000E-01  0.286430E-002
   0.32000E-01  0.295670E-002
   0.33000E-01  0.304910E-002
   0.34000E-01  0.314150E-002
   0.35000E-01  0.323389E-002
   0.36000E-01  0.332629E-002
   0.37000E-01  0.341869E-002
   0.38000E-01  0.351108E-002
   0.39000E-01  0.360348E-002
   0.40000E-01  0.369588E-002

   0.41000E-01  0.378827E-002
   0.42000E-01  0.388067E-002
   0.43000E-01  0.397307E-002
   0.44000E-01  0.406546E-002
   0.45000E-01  0.415786E-002
   0.46000E-01  0.425026E-002
   0.47000E-01  0.434266E-002
   0.48000E-01  0.443505E-002
   0.49000E-01  0.452745E-002
   0.50000E-01  0.461985E-002
   0.51000E-01  0.471224E-002
   0.52000E-01  0.480464E-002
   0.53000E-01  0.489704E-002
   0.54000E-01  0.498943E-002
   0.55000E-01  0.508183E-002
   0.56000E-01  0.517423E-002
   0.57000E-01  0.526662E-002
   0.58000E-01  0.535902E-002
   0.59000E-01  0.545142E-002
   0.60000E-01  0.554382E-002

   0.61000E-01  0.563621E-002
   0.62000E-01  0.572861E-002
   0.63000E-01  0.582101E-002
   0.64000E-01  0.591340E-002
   0.65000E-01  0.600580E-002
   0.66000E-01  0.609820E-002
   0.67000E-01  0.619059E-002
   0.68000E-01  0.628299E-002
   0.69000E-01  0.637539E-002
   0.70000E-01  0.646779E-002
   0.71000E-01  0.656018E-002
   0.72000E-01  0.665258E-002
   0.73000E-01  0.674498E-002
   0.74000E-01  0.683737E-002
   0.75000E-01  0.692977E-002
   0.76000E-01  0.702217E-002
   0.77000E-01  0.711456E-002
   0.78000E-01  0.720696E-002
   0.79000E-01  0.729936E-002
   0.80000E-01  0.739175E-002

   0.81000E-01  0.748415E-002
   0.82000E-01  0.757655E-002
   0.83000E-01  0.766895E-002
   0.84000E-01  0.776134E-002
   0.85000E-01  0.785374E-002
   0.86000E-01  0.794614E-002
   0.87000E-01  0.803853E-002
   0.88000E-01  0.813093E-002
   0.89000E-01  0.822333E-002
   0.90000E-01  0.831572E-002
   0.91000E-01  0.840812E-002
   0.92000E-01  0.850052E-002
   0.93000E-01  0.859291E-002
   0.94000E-01  0.868531E-002
   0.95000E-01  0.877771E-002
   0.96000E-01  0.887011E-002
   0.97000E-01  0.896250E-002
   0.98000E-01  0.905490E-002
   0.99000E-01  0.914730E-002
   0.10000      0.923969E-002

   0.10100      0.933209E-002
   0.10200      0.942449E-002
   0.10300      0.951688E-002
   0.10400      0.960928E-002
   0.10500      0.970168E-002
   0.10600      0.979407E-002
   0.10700      0.988647E-002
   0.10800      0.997887E-002
   0.10900      0.100713E-001
   0.11000      0.101637E-001
   0.11100      0.102561E-001
   0.11200      0.103485E-001
   0.11300      0.104409E-001
   0.11400      0.105332E-001
   0.11500      0.106256E-001
   0.11600      0.107180E-001
   0.11700      0.108104E-001
   0.11800      0.109028E-001
   0.11900      0.109952E-001
   0.12000      0.110876E-001

   0.12100      0.111800E-001
   0.12200      0.112724E-001
   0.12300      0.113648E-001
   0.12400      0.114572E-001
   0.12500      0.115496E-001
   0.12600      0.116420E-001
   0.12700      0.117344E-001
   0.12800      0.118268E-001
   0.12900      0.119192E-001
   0.13000      0.120116E-001
   0.13100      0.121040E-001
   0.13200      0.121964E-001
   0.13300      0.122888E-001
   0.13400      0.123812E-001
   0.13500      0.124736E-001
   0.13600      0.125660E-001
   0.13700      0.126584E-001
   0.13800      0.127508E-001
   0.13900      0.128432E-001
   0.14000      0.129356E-001

   0.14100      0.130280E-001
   0.14200      0.131204E-001
   0.14300      0.132128E-001
   0.14400      0.133052E-001
   0.14500      0.133976E-001
   0.14600      0.134900E-001
   0.14700      0.135823E-001
   0.14800      0.136747E-001
   0.14900      0.137671E-001
   0.15000      0.138595E-001
   0.15100      0.139519E-001
   0.15200      0.140443E-001
   0.15300      0.141761E-001
   0.15400      0.143715E-001
   0.15500      0.146136E-001
   0.15600      0.148580E-001
   0.15700      0.151003E-001
   0.15800      0.153420E-001
   0.15900      0.155839E-001
   0.16000      0.158259E-001

   0.16100      0.160681E-001
   0.16200      0.163103E-001
   0.16300      0.165526E-001
   0.16400      0.167949E-001
   0.16500      0.170374E-001
   0.16600      0.172799E-001
   0.16700      0.175224E-001
   0.16800      0.177651E-001
   0.16900      0.180078E-001
   0.17000      0.182505E-001
   0.17100      0.184933E-001
   0.17200      0.187362E-001
   0.17300      0.189791E-001
   0.17400      0.192221E-001
   0.17500      0.194651E-001
   0.17600      0.197082E-001
   0.17700      0.199513E-001
   0.17800      0.201945E-001
   0.17900      0.204377E-001
   0.18000      0.206810E-001

   0.18100      0.209243E-001
   0.18200      0.211676E-001
   0.18300      0.214110E-001
   0.18400      0.216544E-001
   0.18500      0.218979E-001
   0.18600      0.221414E-001
   0.18700      0.223849E-001
   0.18800      0.226285E-001
   0.18900      0.229032E-001
   0.19000      0.231887E-001
   0.19100      0.234967E-001
   0.19200      0.238587E-001
   0.19300      0.242293E-001
   0.19400      0.245984E-001
   0.19500      0.249650E-001
   0.19600      0.253313E-001
   0.19700      0.256978E-001
   0.19800      0.260644E-001
   0.19900      0.264312E-001
   0.20000      0.267980E-001

   0.20100      0.271649E-001
   0.20200      0.275319E-001
   0.20300      0.278989E-001
   0.20400      0.282660E-001
   0.20500      0.286331E-001
   0.20600      0.290003E-001
   0.20700      0.293676E-001
   0.20800      0.297349E-001
   0.20900      0.301022E-001
   0.21000      0.304696E-001
   0.21100      0.308371E-001
   0.21200      0.312046E-001
   0.21300      0.315722E-001
   0.21400      0.319398E-001
   0.21500      0.323418E-001
   0.21600      0.328785E-001
   0.21700      0.334136E-001
   0.21800      0.339398E-001
   0.21900      0.344660E-001
   0.22000      0.349924E-001

   0.22100      0.355193E-001
   0.22200      0.360459E-001
   0.22300      0.365723E-001
   0.22400      0.370986E-001
   0.22500      0.376248E-001
   0.22600      0.381509E-001
   0.22700      0.386769E-001
   0.22800      0.392028E-001
   0.22900      0.397285E-001
   0.23000      0.402542E-001
   0.23100      0.407798E-001
   0.23200      0.413053E-001
   0.23300      0.418306E-001
   0.23400      0.423559E-001
   0.23500      0.428811E-001
   0.23600      0.434303E-001
   0.23700      0.440088E-001
   0.23800      0.446389E-001
   0.23900      0.452724E-001
   0.24000      0.459038E-001

   0.24100      0.465347E-001
   0.24200      0.471655E-001
   0.24300      0.477963E-001
   0.24400      0.484270E-001
   0.24500      0.490576E-001
   0.24600      0.496881E-001
   0.24700      0.503185E-001
   0.24800      0.509488E-001
   0.24900      0.515790E-001
   0.25000      0.522091E-001
   0.25100      0.528392E-001
   0.25200      0.534691E-001
   0.25300      0.541013E-001
   0.25400      0.548347E-001
   0.25500      0.556119E-001
   0.25600      0.563873E-001
   0.25700      0.571598E-001
   0.25800      0.579316E-001
   0.25900      0.587032E-001
   0.26000      0.594747E-001

   0.26100      0.602459E-001
   0.26200      0.610168E-001
   0.26300      0.617874E-001
   0.26400      0.625577E-001
   0.26500      0.633277E-001
   0.26600      0.640975E-001
   0.26700      0.648669E-001
   0.26800      0.656361E-001
   0.26900      0.664260E-001
   0.27000      0.672691E-001
   0.27100      0.681385E-001
   0.27200      0.690074E-001
   0.27300      0.698744E-001
   0.27400      0.707410E-001
   0.27500      0.716073E-001
   0.27600      0.724733E-001
   0.27700      0.733391E-001
   0.27800      0.742045E-001
   0.27900      0.750697E-001
   0.28000      0.759346E-001

   0.28100      0.767991E-001
   0.28200      0.776768E-001
   0.28300      0.786754E-001
   0.28400      0.796889E-001
   0.28500      0.806935E-001
   0.28600      0.816963E-001
   0.28700      0.826988E-001
   0.28800      0.837007E-001
   0.28900      0.847021E-001
   0.29000      0.857029E-001
   0.29100      0.867032E-001
   0.29200      0.877029E-001
   0.29300      0.887021E-001
   0.29400      0.897065E-001
   0.29500      0.907644E-001
   0.29600      0.918618E-001
   0.29700      0.929601E-001
   0.29800      0.940551E-001
   0.29900      0.951492E-001
   0.30000      0.962427E-001

   0.30100      0.973356E-001
   0.30200      0.984279E-001
   0.30300      0.995196E-001
   0.30400      0.100611
   0.30500      0.101751
   0.30600      0.102980
   0.30700      0.104219
   0.30800      0.105450
   0.30900      0.106680
   0.31000      0.107908
   0.31100      0.109136
   0.31200      0.110362
   0.31300      0.111587
   0.31400      0.112812
   0.31500      0.114058
   0.31600      0.115377
   0.31700      0.116705
   0.31800      0.118026
   0.31900      0.119346
   0.32000      0.120664

   0.32100      0.121981
   0.32200      0.123297
   0.32300      0.124612
   0.32400      0.126021
   0.32500      0.127486
   0.32600      0.128949
   0.32700      0.130406
   0.32800      0.131861
   0.32900      0.133314
   0.33000      0.134766
   0.33100      0.136216
   0.33200      0.137684
   0.33300      0.139232
   0.33400      0.140788
   0.33500      0.142336
   0.33600      0.143881
   0.33700      0.145424
   0.33800      0.146965
   0.33900      0.148509
   0.34000      0.150186

   0.34100      0.151888
   0.34200      0.153577
   0.34300      0.155261
   0.34400      0.156942
   0.34500      0.158621
   0.34600      0.160299
   0.34700      0.162052
   0.34800      0.163837
   0.34900      0.165617
   0.35000      0.167391
   0.35100      0.169161
   0.35200      0.170928
   0.35300      0.172787
   0.35400      0.174716
   0.35500      0.176643
   0.35600      0.178560
   0.35700      0.180472
   0.35800      0.182380
   0.35900      0.184329
   0.36000      0.186344

   0.36100      0.188361
   0.36200      0.190368
   0.36300      0.192369
   0.36400      0.194373
   0.36500      0.196529
   0.36600      0.198705
   0.36700      0.200861
   0.36800      0.203009
   0.36900      0.205150
   0.37000      0.207362
   0.37100      0.209619
   0.37200      0.211870
   0.37300      0.214108
   0.37400      0.216342
   0.37500      0.218732
   0.37600      0.221150
   0.37700      0.223547
   0.37800      0.225931
   0.37900      0.228337
   0.38000      0.230831

   0.38100      0.233330
   0.38200      0.235809
   0.38300      0.238296
   0.38400      0.240943
   0.38500      0.243607
   0.38600      0.246242
   0.38700      0.248867
   0.38800      0.251595
   0.38900      0.254342
   0.39000      0.257066
   0.39100      0.259824
   0.39200      0.262726
   0.39300      0.265633
   0.39400      0.268508
   0.39500      0.271442
   0.39600      0.274436
   0.39700      0.277415
   0.39800      0.280421
   0.39900      0.283578
   0.40000      0.286735

   0.40100      0.289856
   0.40200      0.293090
   0.40300      0.296334
   0.40400      0.299544
   0.40500      0.302949
   0.40600      0.306370
   0.40700      0.309746
   0.40800      0.313241
   0.40900      0.316734
   0.41000      0.320266
   0.41100      0.323936
   0.41200      0.327587
   0.41300      0.331301
   0.41400      0.335046
   0.41500      0.338817
   0.41600      0.342744
   0.41700      0.346642
   0.41800      0.350637
   0.41900      0.354629
   0.42000      0.358737

   0.42100      0.362913
   0.42200      0.367116
   0.42300      0.371363
   0.42400      0.375685
   0.42500      0.380114
   0.42600      0.384575
   0.42700      0.389066
   0.42800      0.393676
   0.42900      0.398343
   0.43000      0.403089
   0.43100      0.407803
   0.43200      0.412762
   0.43300      0.417733
   0.43400      0.422696
   0.43500      0.427854
   0.43600      0.433045
   0.43700      0.438247
   0.43800      0.443647
   0.43900      0.449095
   0.44000      0.454481

   0.44100      0.460176
   0.44200      0.465893
   0.44300      0.471674
   0.44400      0.477549
   0.44500      0.483359
   0.44600      0.489654
   0.44700      0.495776
   0.44800      0.501994
   0.44900      0.508340
   0.45000      0.514882
   0.45100      0.521243
   0.45200      0.528176
   0.45300      0.535343
   0.45400      0.541935
   0.45500      0.549175
   0.45600      0.556364
   0.45700      0.563812
   0.45800      0.571847
   0.45900      0.579485
   0.46000      0.588249

   0.46100      0.598449
   0.46145      0.622436