File: 4. Notched tensile specimen/Matrix/h = 0.5mm/e11-2.txt
        0		0
   0.10000E-02  0.495638E-004
   0.20000E-02  0.991276E-004
   0.30000E-02  0.148691E-003
   0.40000E-02  0.198255E-003
   0.50000E-02  0.247819E-003
   0.60000E-02  0.297383E-003
   0.70000E-02  0.346947E-003
   0.80000E-02  0.396511E-003
   0.90000E-02  0.446074E-003
   0.10000E-01  0.495638E-003
   0.11000E-01  0.545202E-003
   0.12000E-01  0.594766E-003
   0.13000E-01  0.644330E-003
   0.14000E-01  0.693893E-003
   0.15000E-01  0.743457E-003
   0.16000E-01  0.793021E-003
   0.17000E-01  0.842585E-003
   0.18000E-01  0.892149E-003
   0.19000E-01  0.941713E-003
   0.20000E-01  0.991276E-003

   0.21000E-01  0.104084E-002
   0.22000E-01  0.109040E-002
   0.23000E-01  0.113997E-002
   0.24000E-01  0.118953E-002
   0.25000E-01  0.123910E-002
   0.26000E-01  0.128866E-002
   0.27000E-01  0.133822E-002
   0.28000E-01  0.138779E-002
   0.29000E-01  0.143735E-002
   0.30000E-01  0.148691E-002
   0.31000E-01  0.153648E-002
   0.32000E-01  0.158604E-002
   0.33000E-01  0.163561E-002
   0.34000E-01  0.168517E-002
   0.35000E-01  0.173473E-002
   0.36000E-01  0.178430E-002
   0.37000E-01  0.183386E-002
   0.38000E-01  0.188343E-002
   0.39000E-01  0.193299E-002
   0.40000E-01  0.198255E-002

   0.41000E-01  0.203212E-002
   0.42000E-01  0.208168E-002
   0.43000E-01  0.213124E-002
   0.44000E-01  0.218081E-002
   0.45000E-01  0.223037E-002
   0.46000E-01  0.227994E-002
   0.47000E-01  0.232950E-002
   0.48000E-01  0.237906E-002
   0.49000E-01  0.242863E-002
   0.50000E-01  0.247819E-002
   0.51000E-01  0.252775E-002
   0.52000E-01  0.257732E-002
   0.53000E-01  0.262688E-002
   0.54000E-01  0.267645E-002
   0.55000E-01  0.272601E-002
   0.56000E-01  0.277557E-002
   0.57000E-01  0.282514E-002
   0.58000E-01  0.287470E-002
   0.59000E-01  0.292427E-002
   0.60000E-01  0.297383E-002

   0.61000E-01  0.302339E-002
   0.62000E-01  0.307296E-002
   0.63000E-01  0.312252E-002
   0.64000E-01  0.317208E-002
   0.65000E-01  0.322165E-002
   0.66000E-01  0.327121E-002
   0.67000E-01  0.332078E-002
   0.68000E-01  0.337034E-002
   0.69000E-01  0.341990E-002
   0.70000E-01  0.346947E-002
   0.71000E-01  0.351903E-002
   0.72000E-01  0.356859E-002
   0.73000E-01  0.361816E-002
   0.74000E-01  0.366772E-002
   0.75000E-01  0.371729E-002
   0.76000E-01  0.376685E-002
   0.77000E-01  0.381641E-002
   0.78000E-01  0.386598E-002
   0.79000E-01  0.391554E-002
   0.80000E-01  0.396511E-002

   0.81000E-01  0.401467E-002
   0.82000E-01  0.406423E-002
   0.83000E-01  0.411380E-002
   0.84000E-01  0.416336E-002
   0.85000E-01  0.421292E-002
   0.86000E-01  0.426249E-002
   0.87000E-01  0.431205E-002
   0.88000E-01  0.436162E-002
   0.89000E-01  0.441118E-002
   0.90000E-01  0.446074E-002
   0.91000E-01  0.451031E-002
   0.92000E-01  0.455987E-002
   0.93000E-01  0.460943E-002
   0.94000E-01  0.465900E-002
   0.95000E-01  0.470856E-002
   0.96000E-01  0.475813E-002
   0.97000E-01  0.480769E-002
   0.98000E-01  0.485725E-002
   0.99000E-01  0.490682E-002
   0.10000      0.495638E-002

   0.10100      0.500595E-002
   0.10200      0.505551E-002
   0.10300      0.510507E-002
   0.10400      0.515464E-002
   0.10500      0.520420E-002
   0.10600      0.525376E-002
   0.10700      0.530333E-002
   0.10800      0.535289E-002
   0.10900      0.540246E-002
   0.11000      0.545202E-002
   0.11100      0.550158E-002
   0.11200      0.555115E-002
   0.11300      0.560071E-002
   0.11400      0.565027E-002
   0.11500      0.569984E-002
   0.11600      0.574940E-002
   0.11700      0.579897E-002
   0.11800      0.584853E-002
   0.11900      0.589809E-002
   0.12000      0.594766E-002

   0.12100      0.599722E-002
   0.12200      0.604679E-002
   0.12300      0.609635E-002
   0.12400      0.614591E-002
   0.12500      0.619548E-002
   0.12600      0.624504E-002
   0.12700      0.629460E-002
   0.12800      0.634417E-002
   0.12900      0.639373E-002
   0.13000      0.644330E-002
   0.13100      0.649286E-002
   0.13200      0.654242E-002
   0.13300      0.659199E-002
   0.13400      0.664155E-002
   0.13500      0.669111E-002
   0.13600      0.674068E-002
   0.13700      0.679024E-002
   0.13800      0.683981E-002
   0.13900      0.688937E-002
   0.14000      0.693893E-002

   0.14100      0.698850E-002
   0.14200      0.703806E-002
   0.14300      0.708763E-002
   0.14400      0.713719E-002
   0.14500      0.718675E-002
   0.14600      0.723632E-002
   0.14700      0.728588E-002
   0.14800      0.733544E-002
   0.14900      0.738501E-002
   0.15000      0.743457E-002
   0.15100      0.748414E-002
   0.15200      0.753370E-002
   0.15300      0.758326E-002
   0.15400      0.763283E-002
   0.15500      0.768239E-002
   0.15600      0.773196E-002
   0.15700      0.778152E-002
   0.15800      0.783108E-002
   0.15900      0.788065E-002
   0.16000      0.793021E-002

   0.16100      0.797977E-002
   0.16200      0.802934E-002
   0.16300      0.807890E-002
   0.16400      0.812847E-002
   0.16500      0.817803E-002
   0.16600      0.823219E-002
   0.16700      0.829309E-002
   0.16800      0.835399E-002
   0.16900      0.841489E-002
   0.17000      0.848806E-002
   0.17100      0.857482E-002
   0.17200      0.866195E-002
   0.17300      0.874906E-002
   0.17400      0.883591E-002
   0.17500      0.892281E-002
   0.17600      0.900971E-002
   0.17700      0.909662E-002
   0.17800      0.918352E-002
   0.17900      0.927041E-002
   0.18000      0.935730E-002

   0.18100      0.944418E-002
   0.18200      0.953106E-002
   0.18300      0.961794E-002
   0.18400      0.970481E-002
   0.18500      0.979168E-002
   0.18600      0.987854E-002
   0.18700      0.996540E-002
   0.18800      0.100522E-001
   0.18900      0.101391E-001
   0.19000      0.102259E-001
   0.19100      0.103128E-001
   0.19200      0.103996E-001
   0.19300      0.104865E-001
   0.19400      0.105733E-001
   0.19500      0.106601E-001
   0.19600      0.107469E-001
   0.19700      0.108337E-001
   0.19800      0.109206E-001
   0.19900      0.110074E-001
   0.20000      0.110942E-001

   0.20100      0.111810E-001
   0.20200      0.112678E-001
   0.20300      0.113546E-001
   0.20400      0.114414E-001
   0.20500      0.115282E-001
   0.20600      0.116149E-001
   0.20700      0.117017E-001
   0.20800      0.117885E-001
   0.20900      0.118753E-001
   0.21000      0.119620E-001
   0.21100      0.120488E-001
   0.21200      0.121356E-001
   0.21300      0.122223E-001
   0.21400      0.123091E-001
   0.21500      0.123958E-001
   0.21600      0.124826E-001
   0.21700      0.125693E-001
   0.21800      0.126561E-001
   0.21900      0.127428E-001
   0.22000      0.128296E-001

   0.22100      0.129163E-001
   0.22200      0.130030E-001
   0.22300      0.130898E-001
   0.22400      0.131932E-001
   0.22500      0.133090E-001
   0.22600      0.134248E-001
   0.22700      0.135405E-001
   0.22800      0.136562E-001
   0.22900      0.137719E-001
   0.23000      0.138876E-001
   0.23100      0.140034E-001
   0.23200      0.141548E-001
   0.23300      0.143182E-001
   0.23400      0.144864E-001
   0.23500      0.146530E-001
   0.23600      0.148188E-001
   0.23700      0.149847E-001
   0.23800      0.151507E-001
   0.23900      0.153167E-001
   0.24000      0.154828E-001

   0.24100      0.156487E-001
   0.24200      0.158147E-001
   0.24300      0.159807E-001
   0.24400      0.161466E-001
   0.24500      0.163126E-001
   0.24600      0.164785E-001
   0.24700      0.166444E-001
   0.24800      0.168103E-001
   0.24900      0.169761E-001
   0.25000      0.171420E-001
   0.25100      0.173078E-001
   0.25200      0.174691E-001
   0.25300      0.176257E-001
   0.25400      0.177821E-001
   0.25500      0.179387E-001
   0.25600      0.180952E-001
   0.25700      0.182517E-001
   0.25800      0.184082E-001
   0.25900      0.185647E-001
   0.26000      0.187211E-001

   0.26100      0.188776E-001
   0.26200      0.190341E-001
   0.26300      0.191905E-001
   0.26400      0.193470E-001
   0.26500      0.195413E-001
   0.26600      0.197550E-001
   0.26700      0.200768E-001
   0.26800      0.204104E-001
   0.26900      0.207395E-001
   0.27000      0.210687E-001
   0.27100      0.213981E-001
   0.27200      0.217280E-001
   0.27300      0.220583E-001
   0.27400      0.223890E-001
   0.27500      0.227201E-001
   0.27600      0.230515E-001
   0.27700      0.233834E-001
   0.27800      0.237156E-001
   0.27900      0.240481E-001
   0.28000      0.243810E-001

   0.28100      0.247141E-001
   0.28200      0.250476E-001
   0.28300      0.253807E-001
   0.28400      0.257146E-001
   0.28500      0.260483E-001
   0.28600      0.263823E-001
   0.28700      0.267166E-001
   0.28800      0.270506E-001
   0.28900      0.273849E-001
   0.29000      0.277196E-001
   0.29100      0.280539E-001
   0.29200      0.283885E-001
   0.29300      0.287361E-001
   0.29400      0.291112E-001
   0.29500      0.294916E-001
   0.29600      0.298672E-001
   0.29700      0.302689E-001
   0.29800      0.307344E-001
   0.29900      0.311769E-001
   0.30000      0.316187E-001

   0.30100      0.320583E-001
   0.30200      0.324991E-001
   0.30300      0.329399E-001
   0.30400      0.333811E-001
   0.30500      0.338222E-001
   0.30600      0.342635E-001
   0.30700      0.347052E-001
   0.30800      0.351471E-001
   0.30900      0.355887E-001
   0.31000      0.360273E-001
   0.31100      0.364681E-001
   0.31200      0.369093E-001
   0.31300      0.373535E-001
   0.31400      0.378065E-001
   0.31500      0.382639E-001
   0.31600      0.387583E-001
   0.31700      0.393458E-001
   0.31800      0.398896E-001
   0.31900      0.404654E-001
   0.32000      0.410405E-001

   0.32100      0.416175E-001
   0.32200      0.421933E-001
   0.32300      0.427690E-001
   0.32400      0.433441E-001
   0.32500      0.439192E-001
   0.32600      0.444939E-001
   0.32700      0.450684E-001
   0.32800      0.456426E-001
   0.32900      0.462166E-001
   0.33000      0.467903E-001
   0.33100      0.473638E-001
   0.33200      0.479370E-001
   0.33300      0.485099E-001
   0.33400      0.490825E-001
   0.33500      0.496776E-001
   0.33600      0.502869E-001
   0.33700      0.509184E-001
   0.33800      0.515897E-001
   0.33900      0.522377E-001
   0.34000      0.528998E-001

   0.34100      0.535616E-001
   0.34200      0.542233E-001
   0.34300      0.548848E-001
   0.34400      0.555454E-001
   0.34500      0.562058E-001
   0.34600      0.568656E-001
   0.34700      0.575250E-001
   0.34800      0.581840E-001
   0.34900      0.588463E-001
   0.35000      0.595175E-001
   0.35100      0.602126E-001
   0.35200      0.609891E-001
   0.35300      0.618139E-001
   0.35400      0.626068E-001
   0.35500      0.633973E-001
   0.35600      0.641859E-001
   0.35700      0.649744E-001
   0.35800      0.657621E-001
   0.35900      0.665492E-001
   0.36000      0.673357E-001

   0.36100      0.681213E-001
   0.36200      0.689060E-001
   0.36300      0.696897E-001
   0.36400      0.704726E-001
   0.36500      0.712757E-001
   0.36600      0.720961E-001
   0.36700      0.729597E-001
   0.36800      0.738456E-001
   0.36900      0.747197E-001
   0.37000      0.755894E-001
   0.37100      0.764578E-001
   0.37200      0.773256E-001
   0.37300      0.781926E-001
   0.37400      0.790586E-001
   0.37500      0.799235E-001
   0.37600      0.807883E-001
   0.37700      0.817127E-001
   0.37800      0.827091E-001
   0.37900      0.837247E-001
   0.38000      0.847252E-001

   0.38100      0.857216E-001
   0.38200      0.867158E-001
   0.38300      0.877085E-001
   0.38400      0.886997E-001
   0.38500      0.896891E-001
   0.38600      0.906767E-001
   0.38700      0.916624E-001
   0.38800      0.926741E-001
   0.38900      0.937319E-001
   0.39000      0.948141E-001
   0.39100      0.958946E-001
   0.39200      0.969687E-001
   0.39300      0.980396E-001
   0.39400      0.991084E-001
   0.39500      0.100175
   0.39600      0.101239
   0.39700      0.102340
   0.39800      0.103538
   0.39900      0.104761
   0.40000      0.105967

   0.40100      0.107166
   0.40200      0.108362
   0.40300      0.109555
   0.40400      0.110745
   0.40500      0.111931
   0.40600      0.113143
   0.40700      0.114417
   0.40800      0.115708
   0.40900      0.116985
   0.41000      0.118258
   0.41100      0.119526
   0.41200      0.120790
   0.41300      0.122061
   0.41400      0.123460
   0.41500      0.124889
   0.41600      0.126298
   0.41700      0.127698
   0.41800      0.129092
   0.41900      0.130481
   0.42000      0.131872

   0.42100      0.133318
   0.42200      0.134805
   0.42300      0.136289
   0.42400      0.137759
   0.42500      0.139223
   0.42600      0.140680
   0.42700      0.142251
   0.42800      0.143875
   0.42900      0.145489
   0.43000      0.147086
   0.43100      0.148674
   0.43200      0.150258
   0.43300      0.151903
   0.43400      0.153589
   0.43500      0.155266
   0.43600      0.156927
   0.43700      0.158577
   0.43800      0.160330
   0.43900      0.162153
   0.44000      0.163962

   0.44100      0.165748
   0.44200      0.167521
   0.44300      0.169352
   0.44400      0.171230
   0.44500      0.173097
   0.44600      0.174940
   0.44700      0.176829
   0.44800      0.178829
   0.44900      0.180838
   0.45000      0.182811
   0.45100      0.184776
   0.45200      0.186825
   0.45300      0.188889
   0.45400      0.190919
   0.45500      0.192988
   0.45600      0.195171
   0.45700      0.197358
   0.45800      0.199501
   0.45900      0.201699
   0.46000      0.203936

   0.46100      0.206148
   0.46200      0.208406
   0.46300      0.210765
   0.46400      0.213112
   0.46500      0.215446
   0.46600      0.217844
   0.46700      0.220233
   0.46800      0.222657
   0.46900      0.225178
   0.47000      0.227677
   0.47100      0.230213
   0.47200      0.232770
   0.47300      0.235319
   0.47400      0.237991
   0.47500      0.240660
   0.47600      0.243359
   0.47700      0.246058
   0.47800      0.248827
   0.47900      0.251652
   0.48000      0.254500

   0.48100      0.257353
   0.48200      0.260289
   0.48300      0.263266
   0.48400      0.266308
   0.48500      0.269383
   0.48600      0.272549
   0.48700      0.275820
   0.48800      0.279220
   0.48900      0.282814
   0.49000      0.287105
   0.49100      0.291377
   0.49111      0.291858