File: 4. Notched tensile specimen/Matrix/h = 0.5mm/Stress-2.txt
          0		0
   0.10000E-02  0.272498E+007
   0.20000E-02  0.544996E+007
   0.30000E-02  0.817494E+007
   0.40000E-02  0.108999E+008
   0.50000E-02  0.136249E+008
   0.60000E-02  0.163499E+008
   0.70000E-02  0.190749E+008
   0.80000E-02  0.217998E+008
   0.90000E-02  0.245248E+008
   0.10000E-01  0.272498E+008
   0.11000E-01  0.299748E+008
   0.12000E-01  0.326998E+008
   0.13000E-01  0.354248E+008
   0.14000E-01  0.381497E+008
   0.15000E-01  0.408747E+008
   0.16000E-01  0.435997E+008
   0.17000E-01  0.463247E+008
   0.18000E-01  0.490497E+008
   0.19000E-01  0.517746E+008
   0.20000E-01  0.544996E+008

   0.21000E-01  0.572246E+008
   0.22000E-01  0.599496E+008
   0.23000E-01  0.626746E+008
   0.24000E-01  0.653995E+008
   0.25000E-01  0.681245E+008
   0.26000E-01  0.708495E+008
   0.27000E-01  0.735745E+008
   0.28000E-01  0.762995E+008
   0.29000E-01  0.790244E+008
   0.30000E-01  0.817494E+008
   0.31000E-01  0.844744E+008
   0.32000E-01  0.871994E+008
   0.33000E-01  0.899244E+008
   0.34000E-01  0.926494E+008
   0.35000E-01  0.953743E+008
   0.36000E-01  0.980993E+008
   0.37000E-01  0.100824E+009
   0.38000E-01  0.103549E+009
   0.39000E-01  0.106274E+009
   0.40000E-01  0.108999E+009

   0.41000E-01  0.111724E+009
   0.42000E-01  0.114449E+009
   0.43000E-01  0.117174E+009
   0.44000E-01  0.119899E+009
   0.45000E-01  0.122624E+009
   0.46000E-01  0.125349E+009
   0.47000E-01  0.128074E+009
   0.48000E-01  0.130799E+009
   0.49000E-01  0.133524E+009
   0.50000E-01  0.136249E+009
   0.51000E-01  0.138974E+009
   0.52000E-01  0.141699E+009
   0.53000E-01  0.144424E+009
   0.54000E-01  0.147149E+009
   0.55000E-01  0.149874E+009
   0.56000E-01  0.152599E+009
   0.57000E-01  0.155324E+009
   0.58000E-01  0.158049E+009
   0.59000E-01  0.160774E+009
   0.60000E-01  0.163499E+009

   0.61000E-01  0.166224E+009
   0.62000E-01  0.168949E+009
   0.63000E-01  0.171674E+009
   0.64000E-01  0.174399E+009
   0.65000E-01  0.177124E+009
   0.66000E-01  0.179849E+009
   0.67000E-01  0.182574E+009
   0.68000E-01  0.185299E+009
   0.69000E-01  0.188024E+009
   0.70000E-01  0.190749E+009
   0.71000E-01  0.193474E+009
   0.72000E-01  0.196199E+009
   0.73000E-01  0.198924E+009
   0.74000E-01  0.201649E+009
   0.75000E-01  0.204374E+009
   0.76000E-01  0.207099E+009
   0.77000E-01  0.209824E+009
   0.78000E-01  0.212549E+009
   0.79000E-01  0.215274E+009
   0.80000E-01  0.217998E+009

   0.81000E-01  0.220723E+009
   0.82000E-01  0.223448E+009
   0.83000E-01  0.226173E+009
   0.84000E-01  0.228898E+009
   0.85000E-01  0.231623E+009
   0.86000E-01  0.234348E+009
   0.87000E-01  0.237073E+009
   0.88000E-01  0.239798E+009
   0.89000E-01  0.242523E+009
   0.90000E-01  0.245248E+009
   0.91000E-01  0.247973E+009
   0.92000E-01  0.250698E+009
   0.93000E-01  0.253423E+009
   0.94000E-01  0.256148E+009
   0.95000E-01  0.258873E+009
   0.96000E-01  0.261598E+009
   0.97000E-01  0.264323E+009
   0.98000E-01  0.267048E+009
   0.99000E-01  0.269773E+009
   0.10000      0.272498E+009

   0.10100      0.275223E+009
   0.10200      0.277948E+009
   0.10300      0.280673E+009
   0.10400      0.283398E+009
   0.10500      0.286123E+009
   0.10600      0.288848E+009
   0.10700      0.291573E+009
   0.10800      0.294298E+009
   0.10900      0.297023E+009
   0.11000      0.299748E+009
   0.11100      0.302473E+009
   0.11200      0.305198E+009
   0.11300      0.307923E+009
   0.11400      0.310648E+009
   0.11500      0.313373E+009
   0.11600      0.316098E+009
   0.11700      0.318823E+009
   0.11800      0.321548E+009
   0.11900      0.324273E+009
   0.12000      0.326998E+009

   0.12100      0.329723E+009
   0.12200      0.332448E+009
   0.12300      0.335173E+009
   0.12400      0.337898E+009
   0.12500      0.340623E+009
   0.12600      0.343348E+009
   0.12700      0.346073E+009
   0.12800      0.348798E+009
   0.12900      0.351523E+009
   0.13000      0.354248E+009
   0.13100      0.356973E+009
   0.13200      0.359698E+009
   0.13300      0.362422E+009
   0.13400      0.365147E+009
   0.13500      0.367872E+009
   0.13600      0.370597E+009
   0.13700      0.373322E+009
   0.13800      0.376047E+009
   0.13900      0.378772E+009
   0.14000      0.381497E+009

   0.14100      0.384222E+009
   0.14200      0.386947E+009
   0.14300      0.389672E+009
   0.14400      0.392397E+009
   0.14500      0.395122E+009
   0.14600      0.397847E+009
   0.14700      0.400572E+009
   0.14800      0.403297E+009
   0.14900      0.406022E+009
   0.15000      0.408747E+009
   0.15100      0.411472E+009
   0.15200      0.414197E+009
   0.15300      0.416922E+009
   0.15400      0.419647E+009
   0.15500      0.422372E+009
   0.15600      0.425097E+009
   0.15700      0.427822E+009
   0.15800      0.430547E+009
   0.15900      0.433272E+009
   0.16000      0.435997E+009

   0.16100      0.438722E+009
   0.16200      0.441447E+009
   0.16300      0.444172E+009
   0.16400      0.446897E+009
   0.16500      0.449622E+009
   0.16600      0.452600E+009
   0.16700      0.455950E+009
   0.16800      0.459299E+009
   0.16900      0.462648E+009
   0.17000      0.466674E+009
   0.17100      0.471450E+009
   0.17200      0.476246E+009
   0.17300      0.481041E+009
   0.17400      0.485822E+009
   0.17500      0.490605E+009
   0.17600      0.495389E+009
   0.17700      0.500173E+009
   0.17800      0.504957E+009
   0.17900      0.509740E+009
   0.18000      0.514523E+009

   0.18100      0.519306E+009
   0.18200      0.524088E+009
   0.18300      0.528871E+009
   0.18400      0.533653E+009
   0.18500      0.538435E+009
   0.18600      0.543216E+009
   0.18700      0.547998E+009
   0.18800      0.552779E+009
   0.18900      0.557560E+009
   0.19000      0.562341E+009
   0.19100      0.567122E+009
   0.19200      0.571902E+009
   0.19300      0.576683E+009
   0.19400      0.581463E+009
   0.19500      0.586243E+009
   0.19600      0.591022E+009
   0.19700      0.595802E+009
   0.19800      0.600581E+009
   0.19900      0.605360E+009
   0.20000      0.610139E+009

   0.20100      0.614918E+009
   0.20200      0.619697E+009
   0.20300      0.624475E+009
   0.20400      0.629253E+009
   0.20500      0.634031E+009
   0.20600      0.638809E+009
   0.20700      0.643587E+009
   0.20800      0.648364E+009
   0.20900      0.653141E+009
   0.21000      0.657919E+009
   0.21100      0.662695E+009
   0.21200      0.667472E+009
   0.21300      0.672249E+009
   0.21400      0.677025E+009
   0.21500      0.681802E+009
   0.21600      0.686578E+009
   0.21700      0.691354E+009
   0.21800      0.696129E+009
   0.21900      0.700905E+009
   0.22000      0.705680E+009

   0.22100      0.710456E+009
   0.22200      0.715231E+009
   0.22300      0.720006E+009
   0.22400      0.725700E+009
   0.22500      0.732071E+009
   0.22600      0.738442E+009
   0.22700      0.744811E+009
   0.22800      0.751179E+009
   0.22900      0.757548E+009
   0.23000      0.763916E+009
   0.23100      0.770283E+009
   0.23200      0.771908E+009
   0.23300      0.771499E+009
   0.23400      0.771079E+009
   0.23500      0.770662E+009
   0.23600      0.770248E+009
   0.23700      0.769834E+009
   0.23800      0.769420E+009
   0.23900      0.769006E+009
   0.24000      0.768592E+009

   0.24100      0.768179E+009
   0.24200      0.767765E+009
   0.24300      0.767352E+009
   0.24400      0.766940E+009
   0.24500      0.766527E+009
   0.24600      0.766115E+009
   0.24700      0.765703E+009
   0.24800      0.765291E+009
   0.24900      0.764880E+009
   0.25000      0.764469E+009
   0.25100      0.764058E+009
   0.25200      0.763658E+009
   0.25300      0.763271E+009
   0.25400      0.762884E+009
   0.25500      0.762497E+009
   0.25600      0.762110E+009
   0.25700      0.761723E+009
   0.25800      0.761337E+009
   0.25900      0.760950E+009
   0.26000      0.760564E+009

   0.26100      0.760179E+009
   0.26200      0.759793E+009
   0.26300      0.759408E+009
   0.26400      0.759023E+009
   0.26500      0.758545E+009
   0.26600      0.758019E+009
   0.26700      0.757230E+009
   0.26800      0.756412E+009
   0.26900      0.755606E+009
   0.27000      0.754800E+009
   0.27100      0.753995E+009
   0.27200      0.753190E+009
   0.27300      0.752385E+009
   0.27400      0.751579E+009
   0.27500      0.750774E+009
   0.27600      0.749968E+009
   0.27700      0.749162E+009
   0.27800      0.748356E+009
   0.27900      0.747551E+009
   0.28000      0.746745E+009

   0.28100      0.745940E+009
   0.28200      0.745134E+009
   0.28300      0.744331E+009
   0.28400      0.743526E+009
   0.28500      0.742723E+009
   0.28600      0.741920E+009
   0.28700      0.741117E+009
   0.28800      0.740316E+009
   0.28900      0.739515E+009
   0.29000      0.738713E+009
   0.29100      0.737914E+009
   0.29200      0.737115E+009
   0.29300      0.736285E+009
   0.29400      0.735391E+009
   0.29500      0.734486E+009
   0.29600      0.733593E+009
   0.29700      0.732639E+009
   0.29800      0.731536E+009
   0.29900      0.730488E+009
   0.30000      0.729444E+009

   0.30100      0.728406E+009
   0.30200      0.727367E+009
   0.30300      0.726330E+009
   0.30400      0.725293E+009
   0.30500      0.724257E+009
   0.30600      0.723223E+009
   0.30700      0.722189E+009
   0.30800      0.721157E+009
   0.30900      0.720126E+009
   0.31000      0.719104E+009
   0.31100      0.718078E+009
   0.31200      0.717053E+009
   0.31300      0.716023E+009
   0.31400      0.714973E+009
   0.31500      0.713915E+009
   0.31600      0.712773E+009
   0.31700      0.711418E+009
   0.31800      0.710167E+009
   0.31900      0.708844E+009
   0.32000      0.707526E+009

   0.32100      0.706205E+009
   0.32200      0.704890E+009
   0.32300      0.703577E+009
   0.32400      0.702268E+009
   0.32500      0.700962E+009
   0.32600      0.699659E+009
   0.32700      0.698358E+009
   0.32800      0.697061E+009
   0.32900      0.695767E+009
   0.33000      0.694476E+009
   0.33100      0.693188E+009
   0.33200      0.691902E+009
   0.33300      0.690620E+009
   0.33400      0.689341E+009
   0.33500      0.688014E+009
   0.33600      0.686658E+009
   0.33700      0.685256E+009
   0.33800      0.683768E+009
   0.33900      0.682335E+009
   0.34000      0.680874E+009

   0.34100      0.679417E+009
   0.34200      0.677963E+009
   0.34300      0.676512E+009
   0.34400      0.675067E+009
   0.34500      0.673625E+009
   0.34600      0.672188E+009
   0.34700      0.670754E+009
   0.34800      0.669325E+009
   0.34900      0.667891E+009
   0.35000      0.666441E+009
   0.35100      0.664943E+009
   0.35200      0.663274E+009
   0.35300      0.661505E+009
   0.35400      0.659809E+009
   0.35500      0.658123E+009
   0.35600      0.656445E+009
   0.35700      0.654771E+009
   0.35800      0.653104E+009
   0.35900      0.651442E+009
   0.36000      0.649785E+009

   0.36100      0.648135E+009
   0.36200      0.646490E+009
   0.36300      0.644852E+009
   0.36400      0.643220E+009
   0.36500      0.641550E+009
   0.36600      0.639848E+009
   0.36700      0.638062E+009
   0.36800      0.636234E+009
   0.36900      0.634437E+009
   0.37000      0.632653E+009
   0.37100      0.630877E+009
   0.37200      0.629107E+009
   0.37300      0.627344E+009
   0.37400      0.625588E+009
   0.37500      0.623839E+009
   0.37600      0.622095E+009
   0.37700      0.620236E+009
   0.37800      0.618238E+009
   0.37900      0.616209E+009
   0.38000      0.614216E+009

   0.38100      0.612239E+009
   0.38200      0.610271E+009
   0.38300      0.608313E+009
   0.38400      0.606364E+009
   0.38500      0.604425E+009
   0.38600      0.602496E+009
   0.38700      0.600577E+009
   0.38800      0.598613E+009
   0.38900      0.596567E+009
   0.39000      0.594481E+009
   0.39100      0.592405E+009
   0.39200      0.590349E+009
   0.39300      0.588306E+009
   0.39400      0.586274E+009
   0.39500      0.584253E+009
   0.39600      0.582243E+009
   0.39700      0.580173E+009
   0.39800      0.577928E+009
   0.39900      0.575644E+009
   0.40000      0.573401E+009

   0.40100      0.571179E+009
   0.40200      0.568972E+009
   0.40300      0.566779E+009
   0.40400      0.564601E+009
   0.40500      0.562436E+009
   0.40600      0.560235E+009
   0.40700      0.557929E+009
   0.40800      0.555603E+009
   0.40900      0.553309E+009
   0.41000      0.551035E+009
   0.41100      0.548779E+009
   0.41200      0.546538E+009
   0.41300      0.544293E+009
   0.41400      0.541835E+009
   0.41500      0.539333E+009
   0.41600      0.536878E+009
   0.41700      0.534451E+009
   0.41800      0.532045E+009
   0.41900      0.529658E+009
   0.42000      0.527279E+009

   0.42100      0.524817E+009
   0.42200      0.522297E+009
   0.42300      0.519795E+009
   0.42400      0.517326E+009
   0.42500      0.514881E+009
   0.42600      0.512458E+009
   0.42700      0.509859E+009
   0.42800      0.507186E+009
   0.42900      0.504542E+009
   0.43000      0.501941E+009
   0.43100      0.499368E+009
   0.43200      0.496814E+009
   0.43300      0.494177E+009
   0.43400      0.491487E+009
   0.43500      0.488826E+009
   0.43600      0.486206E+009
   0.43700      0.483615E+009
   0.43800      0.480879E+009
   0.43900      0.478050E+009
   0.44000      0.475259E+009

   0.44100      0.472519E+009
   0.44200      0.469816E+009
   0.44300      0.467039E+009
   0.44400      0.464209E+009
   0.44500      0.461413E+009
   0.44600      0.458668E+009
   0.44700      0.455873E+009
   0.44800      0.452931E+009
   0.44900      0.449995E+009
   0.45000      0.447131E+009
   0.45100      0.444296E+009
   0.45200      0.441360E+009
   0.45300      0.438421E+009
   0.45400      0.435550E+009
   0.45500      0.432643E+009
   0.45600      0.429597E+009
   0.45700      0.426567E+009
   0.45800      0.423619E+009
   0.45900      0.420616E+009
   0.46000      0.417581E+009

   0.46100      0.414603E+009
   0.46200      0.411585E+009
   0.46300      0.408454E+009
   0.46400      0.405363E+009
   0.46500      0.402313E+009
   0.46600      0.399202E+009
   0.46700      0.396128E+009
   0.46800      0.393033E+009
   0.46900      0.389839E+009
   0.47000      0.386699E+009
   0.47100      0.383538E+009
   0.47200      0.380378E+009
   0.47300      0.377252E+009
   0.47400      0.374005E+009
   0.47500      0.370788E+009
   0.47600      0.367564E+009
   0.47700      0.364367E+009
   0.47800      0.361118E+009
   0.47900      0.357831E+009
   0.48000      0.354548E+009

   0.48100      0.351291E+009
   0.48200      0.347969E+009
   0.48300      0.344633E+009
   0.48400      0.341257E+009
   0.48500      0.337879E+009
   0.48600      0.334435E+009
   0.48700      0.330914E+009
   0.48800      0.327294E+009
   0.48900      0.323509E+009
   0.49000      0.319049E+009
   0.49100      0.314670E+009
   0.49111      0.314181E+009