File: 4. Notched tensile specimen/Matrix/h = 0.5mm/Stress-1.txt
	0		0
   0.10000E-02  0.466317E+007
   0.20000E-02  0.932634E+007
   0.30000E-02  0.139895E+008
   0.40000E-02  0.186527E+008
   0.50000E-02  0.233159E+008
   0.60000E-02  0.279790E+008
   0.70000E-02  0.326422E+008
   0.80000E-02  0.373054E+008
   0.90000E-02  0.419685E+008
   0.10000E-01  0.466317E+008
   0.11000E-01  0.512949E+008
   0.12000E-01  0.559581E+008
   0.13000E-01  0.606212E+008
   0.14000E-01  0.652844E+008
   0.15000E-01  0.699476E+008
   0.16000E-01  0.746107E+008
   0.17000E-01  0.792739E+008
   0.18000E-01  0.839371E+008
   0.19000E-01  0.886003E+008
   0.20000E-01  0.932634E+008

   0.21000E-01  0.979266E+008
   0.22000E-01  0.102590E+009
   0.23000E-01  0.107253E+009
   0.24000E-01  0.111916E+009
   0.25000E-01  0.116579E+009
   0.26000E-01  0.121242E+009
   0.27000E-01  0.125906E+009
   0.28000E-01  0.130569E+009
   0.29000E-01  0.135232E+009
   0.30000E-01  0.139895E+009
   0.31000E-01  0.144558E+009
   0.32000E-01  0.149221E+009
   0.33000E-01  0.153885E+009
   0.34000E-01  0.158548E+009
   0.35000E-01  0.163211E+009
   0.36000E-01  0.167874E+009
   0.37000E-01  0.172537E+009
   0.38000E-01  0.177201E+009
   0.39000E-01  0.181864E+009
   0.40000E-01  0.186527E+009

   0.41000E-01  0.191190E+009
   0.42000E-01  0.195853E+009
   0.43000E-01  0.200516E+009
   0.44000E-01  0.205180E+009
   0.45000E-01  0.209843E+009
   0.46000E-01  0.214506E+009
   0.47000E-01  0.219169E+009
   0.48000E-01  0.223832E+009
   0.49000E-01  0.228495E+009
   0.50000E-01  0.233159E+009
   0.51000E-01  0.237822E+009
   0.52000E-01  0.242485E+009
   0.53000E-01  0.247148E+009
   0.54000E-01  0.251811E+009
   0.55000E-01  0.256474E+009
   0.56000E-01  0.261138E+009
   0.57000E-01  0.265801E+009
   0.58000E-01  0.270464E+009
   0.59000E-01  0.275127E+009
   0.60000E-01  0.279790E+009

   0.61000E-01  0.284453E+009
   0.62000E-01  0.289117E+009
   0.63000E-01  0.293780E+009
   0.64000E-01  0.298443E+009
   0.65000E-01  0.303106E+009
   0.66000E-01  0.307769E+009
   0.67000E-01  0.312432E+009
   0.68000E-01  0.317096E+009
   0.69000E-01  0.321759E+009
   0.70000E-01  0.326422E+009
   0.71000E-01  0.331085E+009
   0.72000E-01  0.335748E+009
   0.73000E-01  0.340411E+009
   0.74000E-01  0.345075E+009
   0.75000E-01  0.349738E+009
   0.76000E-01  0.354401E+009
   0.77000E-01  0.359064E+009
   0.78000E-01  0.363727E+009
   0.79000E-01  0.368391E+009
   0.80000E-01  0.373054E+009

   0.81000E-01  0.377717E+009
   0.82000E-01  0.382380E+009
   0.83000E-01  0.387043E+009
   0.84000E-01  0.391706E+009
   0.85000E-01  0.396370E+009
   0.86000E-01  0.401033E+009
   0.87000E-01  0.405696E+009
   0.88000E-01  0.410359E+009
   0.89000E-01  0.415022E+009
   0.90000E-01  0.419685E+009
   0.91000E-01  0.424349E+009
   0.92000E-01  0.429012E+009
   0.93000E-01  0.433675E+009
   0.94000E-01  0.438338E+009
   0.95000E-01  0.443001E+009
   0.96000E-01  0.447664E+009
   0.97000E-01  0.452328E+009
   0.98000E-01  0.456991E+009
   0.99000E-01  0.461654E+009
   0.10000      0.466317E+009

   0.10100      0.470980E+009
   0.10200      0.475643E+009
   0.10300      0.480307E+009
   0.10400      0.484970E+009
   0.10500      0.489633E+009
   0.10600      0.494296E+009
   0.10700      0.498959E+009
   0.10800      0.503622E+009
   0.10900      0.508286E+009
   0.11000      0.512949E+009
   0.11100      0.517612E+009
   0.11200      0.522275E+009
   0.11300      0.526938E+009
   0.11400      0.531602E+009
   0.11500      0.536265E+009
   0.11600      0.540928E+009
   0.11700      0.545591E+009
   0.11800      0.550254E+009
   0.11900      0.554917E+009
   0.12000      0.559581E+009

   0.12100      0.564244E+009
   0.12200      0.568907E+009
   0.12300      0.573570E+009
   0.12400      0.578233E+009
   0.12500      0.582896E+009
   0.12600      0.587560E+009
   0.12700      0.592223E+009
   0.12800      0.596886E+009
   0.12900      0.601549E+009
   0.13000      0.606212E+009
   0.13100      0.610875E+009
   0.13200      0.615539E+009
   0.13300      0.620202E+009
   0.13400      0.624865E+009
   0.13500      0.629528E+009
   0.13600      0.634191E+009
   0.13700      0.638854E+009
   0.13800      0.643518E+009
   0.13900      0.648181E+009
   0.14000      0.652844E+009

   0.14100      0.657507E+009
   0.14200      0.662170E+009
   0.14300      0.666833E+009
   0.14400      0.671497E+009
   0.14500      0.676160E+009
   0.14600      0.680823E+009
   0.14700      0.685486E+009
   0.14800      0.690149E+009
   0.14900      0.694813E+009
   0.15000      0.699476E+009
   0.15100      0.704139E+009
   0.15200      0.708802E+009
   0.15300      0.713465E+009
   0.15400      0.718128E+009
   0.15500      0.722792E+009
   0.15600      0.727455E+009
   0.15700      0.732118E+009
   0.15800      0.736781E+009
   0.15900      0.741444E+009
   0.16000      0.746107E+009

   0.16100      0.750771E+009
   0.16200      0.755434E+009
   0.16300      0.760097E+009
   0.16400      0.764760E+009
   0.16500      0.769423E+009
   0.16600      0.772078E+009
   0.16700      0.771776E+009
   0.16800      0.771474E+009
   0.16900      0.771172E+009
   0.17000      0.770780E+009
   0.17100      0.770283E+009
   0.17200      0.769778E+009
   0.17300      0.769277E+009
   0.17400      0.768779E+009
   0.17500      0.768280E+009
   0.17600      0.767782E+009
   0.17700      0.767284E+009
   0.17800      0.766786E+009
   0.17900      0.766289E+009
   0.18000      0.765791E+009

   0.18100      0.765295E+009
   0.18200      0.764798E+009
   0.18300      0.764301E+009
   0.18400      0.763805E+009
   0.18500      0.763309E+009
   0.18600      0.762814E+009
   0.18700      0.762318E+009
   0.18800      0.761823E+009
   0.18900      0.761329E+009
   0.19000      0.760834E+009
   0.19100      0.760340E+009
   0.19200      0.759846E+009
   0.19300      0.759352E+009
   0.19400      0.758859E+009
   0.19500      0.758366E+009
   0.19600      0.757873E+009
   0.19700      0.757381E+009
   0.19800      0.756889E+009
   0.19900      0.756397E+009
   0.20000      0.755905E+009

   0.20100      0.755414E+009
   0.20200      0.754923E+009
   0.20300      0.754432E+009
   0.20400      0.753942E+009
   0.20500      0.753452E+009
   0.20600      0.752962E+009
   0.20700      0.752472E+009
   0.20800      0.751983E+009
   0.20900      0.751494E+009
   0.21000      0.751006E+009
   0.21100      0.750517E+009
   0.21200      0.750029E+009
   0.21300      0.749542E+009
   0.21400      0.749054E+009
   0.21500      0.748567E+009
   0.21600      0.748080E+009
   0.21700      0.747594E+009
   0.21800      0.747108E+009
   0.21900      0.746622E+009
   0.22000      0.746136E+009

   0.22100      0.745651E+009
   0.22200      0.745166E+009
   0.22300      0.744681E+009
   0.22400      0.744151E+009
   0.22500      0.743588E+009
   0.22600      0.743025E+009
   0.22700      0.742463E+009
   0.22800      0.741901E+009
   0.22900      0.741340E+009
   0.23000      0.740779E+009
   0.23100      0.740218E+009
   0.23200      0.739569E+009
   0.23300      0.738870E+009
   0.23400      0.738160E+009
   0.23500      0.737459E+009
   0.23600      0.736762E+009
   0.23700      0.736065E+009
   0.23800      0.735368E+009
   0.23900      0.734672E+009
   0.24000      0.733977E+009

   0.24100      0.733282E+009
   0.24200      0.732588E+009
   0.24300      0.731895E+009
   0.24400      0.731202E+009
   0.24500      0.730511E+009
   0.24600      0.729820E+009
   0.24700      0.729129E+009
   0.24800      0.728440E+009
   0.24900      0.727751E+009
   0.25000      0.727063E+009
   0.25100      0.726375E+009
   0.25200      0.725680E+009
   0.25300      0.724978E+009
   0.25400      0.724277E+009
   0.25500      0.723576E+009
   0.25600      0.722876E+009
   0.25700      0.722177E+009
   0.25800      0.721478E+009
   0.25900      0.720780E+009
   0.26000      0.720082E+009

   0.26100      0.719386E+009
   0.26200      0.718690E+009
   0.26300      0.717994E+009
   0.26400      0.717300E+009
   0.26500      0.716515E+009
   0.26600      0.715696E+009
   0.26700      0.714729E+009
   0.26800      0.713742E+009
   0.26900      0.712764E+009
   0.27000      0.711792E+009
   0.27100      0.710820E+009
   0.27200      0.709850E+009
   0.27300      0.708881E+009
   0.27400      0.707914E+009
   0.27500      0.706948E+009
   0.27600      0.705984E+009
   0.27700      0.705022E+009
   0.27800      0.704060E+009
   0.27900      0.703101E+009
   0.28000      0.702142E+009

   0.28100      0.701186E+009
   0.28200      0.700230E+009
   0.28300      0.699277E+009
   0.28400      0.698325E+009
   0.28500      0.697374E+009
   0.28600      0.696425E+009
   0.28700      0.695477E+009
   0.28800      0.694532E+009
   0.28900      0.693587E+009
   0.29000      0.692644E+009
   0.29100      0.691702E+009
   0.29200      0.690762E+009
   0.29300      0.689791E+009
   0.29400      0.688783E+009
   0.29500      0.687773E+009
   0.29600      0.686768E+009
   0.29700      0.685685E+009
   0.29800      0.684548E+009
   0.29900      0.683426E+009
   0.30000      0.682308E+009

   0.30100      0.681194E+009
   0.30200      0.680082E+009
   0.30300      0.678972E+009
   0.30400      0.677864E+009
   0.30500      0.676758E+009
   0.30600      0.675654E+009
   0.30700      0.674552E+009
   0.30800      0.673448E+009
   0.30900      0.672345E+009
   0.31000      0.671245E+009
   0.31100      0.670146E+009
   0.31200      0.669049E+009
   0.31300      0.667946E+009
   0.31400      0.666836E+009
   0.31500      0.665725E+009
   0.31600      0.664557E+009
   0.31700      0.663236E+009
   0.31800      0.661912E+009
   0.31900      0.660576E+009
   0.32000      0.659246E+009

   0.32100      0.657920E+009
   0.32200      0.656597E+009
   0.32300      0.655278E+009
   0.32400      0.653962E+009
   0.32500      0.652650E+009
   0.32600      0.651341E+009
   0.32700      0.650035E+009
   0.32800      0.648733E+009
   0.32900      0.647434E+009
   0.33000      0.646139E+009
   0.33100      0.644847E+009
   0.33200      0.643558E+009
   0.33300      0.642273E+009
   0.33400      0.640991E+009
   0.33500      0.639671E+009
   0.33600      0.638330E+009
   0.33700      0.636955E+009
   0.33800      0.635515E+009
   0.33900      0.634086E+009
   0.34000      0.632656E+009

   0.34100      0.631231E+009
   0.34200      0.629811E+009
   0.34300      0.628394E+009
   0.34400      0.626982E+009
   0.34500      0.625573E+009
   0.34600      0.624169E+009
   0.34700      0.622770E+009
   0.34800      0.621374E+009
   0.34900      0.619976E+009
   0.35000      0.618567E+009
   0.35100      0.617109E+009
   0.35200      0.615492E+009
   0.35300      0.613844E+009
   0.35400      0.612232E+009
   0.35500      0.610628E+009
   0.35600      0.609030E+009
   0.35700      0.607437E+009
   0.35800      0.605850E+009
   0.35900      0.604269E+009
   0.36000      0.602694E+009

   0.36100      0.601124E+009
   0.36200      0.599560E+009
   0.36300      0.598002E+009
   0.36400      0.596449E+009
   0.36500      0.594864E+009
   0.36600      0.593252E+009
   0.36700      0.591565E+009
   0.36800      0.589861E+009
   0.36900      0.588177E+009
   0.37000      0.586500E+009
   0.37100      0.584832E+009
   0.37200      0.583169E+009
   0.37300      0.581513E+009
   0.37400      0.579864E+009
   0.37500      0.578222E+009
   0.37600      0.576584E+009
   0.37700      0.574846E+009
   0.37800      0.572990E+009
   0.37900      0.571122E+009
   0.38000      0.569279E+009

   0.38100      0.567446E+009
   0.38200      0.565624E+009
   0.38300      0.563809E+009
   0.38400      0.562004E+009
   0.38500      0.560208E+009
   0.38600      0.558420E+009
   0.38700      0.556641E+009
   0.38800      0.554824E+009
   0.38900      0.552937E+009
   0.39000      0.551020E+009
   0.39100      0.549114E+009
   0.39200      0.547223E+009
   0.39300      0.545344E+009
   0.39400      0.543474E+009
   0.39500      0.541615E+009
   0.39600      0.539765E+009
   0.39700      0.537863E+009
   0.39800      0.535811E+009
   0.39900      0.533736E+009
   0.40000      0.531693E+009

   0.40100      0.529666E+009
   0.40200      0.527653E+009
   0.40300      0.525652E+009
   0.40400      0.523664E+009
   0.40500      0.521688E+009
   0.40600      0.519681E+009
   0.40700      0.517585E+009
   0.40800      0.515476E+009
   0.40900      0.513394E+009
   0.41000      0.511328E+009
   0.41100      0.509277E+009
   0.41200      0.507240E+009
   0.41300      0.505200E+009
   0.41400      0.502977E+009
   0.41500      0.500723E+009
   0.41600      0.498508E+009
   0.41700      0.496316E+009
   0.41800      0.494142E+009
   0.41900      0.491984E+009
   0.42000      0.489833E+009

   0.42100      0.487611E+009
   0.42200      0.485343E+009
   0.42300      0.483091E+009
   0.42400      0.480866E+009
   0.42500      0.478662E+009
   0.42600      0.476477E+009
   0.42700      0.474141E+009
   0.42800      0.471745E+009
   0.42900      0.469375E+009
   0.43000      0.467040E+009
   0.43100      0.464729E+009
   0.43200      0.462435E+009
   0.43300      0.460069E+009
   0.43400      0.457660E+009
   0.43500      0.455277E+009
   0.43600      0.452928E+009
   0.43700      0.450604E+009
   0.43800      0.448155E+009
   0.43900      0.445630E+009
   0.44000      0.443138E+009

   0.44100      0.440688E+009
   0.44200      0.438270E+009
   0.44300      0.435789E+009
   0.44400      0.433263E+009
   0.44500      0.430767E+009
   0.44600      0.428314E+009
   0.44700      0.425818E+009
   0.44800      0.423198E+009
   0.44900      0.420585E+009
   0.45000      0.418031E+009
   0.45100      0.415502E+009
   0.45200      0.412887E+009
   0.45300      0.410271E+009
   0.45400      0.407712E+009
   0.45500      0.405122E+009
   0.45600      0.402413E+009
   0.45700      0.399720E+009
   0.45800      0.397096E+009
   0.45900      0.394424E+009
   0.46000      0.391726E+009

   0.46100      0.389077E+009
   0.46200      0.386392E+009
   0.46300      0.383612E+009
   0.46400      0.380867E+009
   0.46500      0.378156E+009
   0.46600      0.375392E+009
   0.46700      0.372661E+009
   0.46800      0.369911E+009
   0.46900      0.367077E+009
   0.47000      0.364290E+009
   0.47100      0.361484E+009
   0.47200      0.358679E+009
   0.47300      0.355903E+009
   0.47400      0.353022E+009
   0.47500      0.350170E+009
   0.47600      0.347309E+009
   0.47700      0.344473E+009
   0.47800      0.341591E+009
   0.47900      0.338677E+009
   0.48000      0.335767E+009

   0.48100      0.332879E+009
   0.48200      0.329935E+009
   0.48300      0.326979E+009
   0.48400      0.323990E+009
   0.48500      0.320999E+009
   0.48600      0.317952E+009
   0.48700      0.314839E+009
   0.48800      0.311643E+009
   0.48900      0.308307E+009
   0.49000      0.304401E+009
   0.49100      0.300511E+009
   0.49111      0.300077E+009