File: 4. Notched tensile specimen/Matrix/h = 1mm/Stress-1.txt
         0		0
   0.10000E-02  0.405751E+007
   0.20000E-02  0.811502E+007
   0.30000E-02  0.121725E+008
   0.40000E-02  0.162300E+008
   0.50000E-02  0.202876E+008
   0.60000E-02  0.243451E+008
   0.70000E-02  0.284026E+008
   0.80000E-02  0.324601E+008
   0.90000E-02  0.365176E+008
   0.10000E-01  0.405751E+008
   0.11000E-01  0.446326E+008
   0.12000E-01  0.486901E+008
   0.13000E-01  0.527476E+008
   0.14000E-01  0.568052E+008
   0.15000E-01  0.608627E+008
   0.16000E-01  0.649202E+008
   0.17000E-01  0.689777E+008
   0.18000E-01  0.730352E+008
   0.19000E-01  0.770927E+008
   0.20000E-01  0.811502E+008

   0.21000E-01  0.852077E+008
   0.22000E-01  0.892653E+008
   0.23000E-01  0.933228E+008
   0.24000E-01  0.973803E+008
   0.25000E-01  0.101438E+009
   0.26000E-01  0.105495E+009
   0.27000E-01  0.109553E+009
   0.28000E-01  0.113610E+009
   0.29000E-01  0.117668E+009
   0.30000E-01  0.121725E+009
   0.31000E-01  0.125783E+009
   0.32000E-01  0.129840E+009
   0.33000E-01  0.133898E+009
   0.34000E-01  0.137955E+009
   0.35000E-01  0.142013E+009
   0.36000E-01  0.146070E+009
   0.37000E-01  0.150128E+009
   0.38000E-01  0.154185E+009
   0.39000E-01  0.158243E+009
   0.40000E-01  0.162300E+009

   0.41000E-01  0.166358E+009
   0.42000E-01  0.170415E+009
   0.43000E-01  0.174473E+009
   0.44000E-01  0.178531E+009
   0.45000E-01  0.182588E+009
   0.46000E-01  0.186646E+009
   0.47000E-01  0.190703E+009
   0.48000E-01  0.194761E+009
   0.49000E-01  0.198818E+009
   0.50000E-01  0.202876E+009
   0.51000E-01  0.206933E+009
   0.52000E-01  0.210991E+009
   0.53000E-01  0.215048E+009
   0.54000E-01  0.219106E+009
   0.55000E-01  0.223163E+009
   0.56000E-01  0.227221E+009
   0.57000E-01  0.231278E+009
   0.58000E-01  0.235336E+009
   0.59000E-01  0.239393E+009
   0.60000E-01  0.243451E+009

   0.61000E-01  0.247508E+009
   0.62000E-01  0.251566E+009
   0.63000E-01  0.255623E+009
   0.64000E-01  0.259681E+009
   0.65000E-01  0.263738E+009
   0.66000E-01  0.267796E+009
   0.67000E-01  0.271853E+009
   0.68000E-01  0.275911E+009
   0.69000E-01  0.279968E+009
   0.70000E-01  0.284026E+009
   0.71000E-01  0.288083E+009
   0.72000E-01  0.292141E+009
   0.73000E-01  0.296198E+009
   0.74000E-01  0.300256E+009
   0.75000E-01  0.304313E+009
   0.76000E-01  0.308371E+009
   0.77000E-01  0.312428E+009
   0.78000E-01  0.316486E+009
   0.79000E-01  0.320543E+009
   0.80000E-01  0.324601E+009

   0.81000E-01  0.328658E+009
   0.82000E-01  0.332716E+009
   0.83000E-01  0.336773E+009
   0.84000E-01  0.340831E+009
   0.85000E-01  0.344888E+009
   0.86000E-01  0.348946E+009
   0.87000E-01  0.353003E+009
   0.88000E-01  0.357061E+009
   0.89000E-01  0.361119E+009
   0.90000E-01  0.365176E+009
   0.91000E-01  0.369234E+009
   0.92000E-01  0.373291E+009
   0.93000E-01  0.377349E+009
   0.94000E-01  0.381406E+009
   0.95000E-01  0.385464E+009
   0.96000E-01  0.389521E+009
   0.97000E-01  0.393579E+009
   0.98000E-01  0.397636E+009
   0.99000E-01  0.401694E+009
   0.10000      0.405751E+009

   0.10100      0.409809E+009
   0.10200      0.413866E+009
   0.10300      0.417924E+009
   0.10400      0.421981E+009
   0.10500      0.426039E+009
   0.10600      0.430096E+009
   0.10700      0.434154E+009
   0.10800      0.438211E+009
   0.10900      0.442269E+009
   0.11000      0.446326E+009
   0.11100      0.450384E+009
   0.11200      0.454441E+009
   0.11300      0.458499E+009
   0.11400      0.462556E+009
   0.11500      0.466614E+009
   0.11600      0.470671E+009
   0.11700      0.474729E+009
   0.11800      0.478786E+009
   0.11900      0.482844E+009
   0.12000      0.486901E+009

   0.12100      0.490959E+009
   0.12200      0.495016E+009
   0.12300      0.499074E+009
   0.12400      0.503131E+009
   0.12500      0.507189E+009
   0.12600      0.511246E+009
   0.12700      0.515304E+009
   0.12800      0.519361E+009
   0.12900      0.523419E+009
   0.13000      0.527476E+009
   0.13100      0.531534E+009
   0.13200      0.535592E+009
   0.13300      0.539649E+009
   0.13400      0.543707E+009
   0.13500      0.547764E+009
   0.13600      0.551822E+009
   0.13700      0.555879E+009
   0.13800      0.559937E+009
   0.13900      0.563994E+009
   0.14000      0.568052E+009

   0.14100      0.572109E+009
   0.14200      0.576167E+009
   0.14300      0.580224E+009
   0.14400      0.584282E+009
   0.14500      0.588339E+009
   0.14600      0.592397E+009
   0.14700      0.596454E+009
   0.14800      0.600512E+009
   0.14900      0.604569E+009
   0.15000      0.608627E+009
   0.15100      0.612684E+009
   0.15200      0.616742E+009
   0.15300      0.620799E+009
   0.15400      0.624857E+009
   0.15500      0.628914E+009
   0.15600      0.632972E+009
   0.15700      0.637029E+009
   0.15800      0.641087E+009
   0.15900      0.645144E+009
   0.16000      0.649202E+009

   0.16100      0.653259E+009
   0.16200      0.657317E+009
   0.16300      0.661374E+009
   0.16400      0.665432E+009
   0.16500      0.669489E+009
   0.16600      0.673547E+009
   0.16700      0.677604E+009
   0.16800      0.681662E+009
   0.16900      0.685719E+009
   0.17000      0.689777E+009
   0.17100      0.693834E+009
   0.17200      0.697892E+009
   0.17300      0.701950E+009
   0.17400      0.706007E+009
   0.17500      0.710065E+009
   0.17600      0.714122E+009
   0.17700      0.718180E+009
   0.17800      0.722237E+009
   0.17900      0.726295E+009
   0.18000      0.730352E+009

   0.18100      0.734410E+009
   0.18200      0.738467E+009
   0.18300      0.742525E+009
   0.18400      0.746582E+009
   0.18500      0.750640E+009
   0.18600      0.754697E+009
   0.18700      0.758755E+009
   0.18800      0.762812E+009
   0.18900      0.766870E+009
   0.19000      0.770927E+009
   0.19100      0.771919E+009
   0.19200      0.771510E+009
   0.19300      0.771101E+009
   0.19400      0.770692E+009
   0.19500      0.770283E+009
   0.19600      0.769875E+009
   0.19700      0.769466E+009
   0.19800      0.769058E+009
   0.19900      0.768651E+009
   0.20000      0.768243E+009

   0.20100      0.767836E+009
   0.20200      0.767234E+009
   0.20300      0.766607E+009
   0.20400      0.765981E+009
   0.20500      0.765362E+009
   0.20600      0.764743E+009
   0.20700      0.764123E+009
   0.20800      0.763505E+009
   0.20900      0.762886E+009
   0.21000      0.762269E+009
   0.21100      0.761652E+009
   0.21200      0.761035E+009
   0.21300      0.760419E+009
   0.21400      0.759803E+009
   0.21500      0.759188E+009
   0.21600      0.758573E+009
   0.21700      0.757959E+009
   0.21800      0.757345E+009
   0.21900      0.756732E+009
   0.22000      0.756119E+009

   0.22100      0.755507E+009
   0.22200      0.754895E+009
   0.22300      0.754284E+009
   0.22400      0.753673E+009
   0.22500      0.753063E+009
   0.22600      0.752453E+009
   0.22700      0.751844E+009
   0.22800      0.751235E+009
   0.22900      0.750627E+009
   0.23000      0.750019E+009
   0.23100      0.749412E+009
   0.23200      0.748805E+009
   0.23300      0.748199E+009
   0.23400      0.747593E+009
   0.23500      0.746988E+009
   0.23600      0.746383E+009
   0.23700      0.745779E+009
   0.23800      0.745175E+009
   0.23900      0.744572E+009
   0.24000      0.743969E+009

   0.24100      0.743367E+009
   0.24200      0.742765E+009
   0.24300      0.742164E+009
   0.24400      0.741563E+009
   0.24500      0.740963E+009
   0.24600      0.740363E+009
   0.24700      0.739764E+009
   0.24800      0.739165E+009
   0.24900      0.738567E+009
   0.25000      0.737969E+009
   0.25100      0.737372E+009
   0.25200      0.736775E+009
   0.25300      0.736179E+009
   0.25400      0.735583E+009
   0.25500      0.734988E+009
   0.25600      0.734393E+009
   0.25700      0.733799E+009
   0.25800      0.733205E+009
   0.25900      0.732612E+009
   0.26000      0.732019E+009

   0.26100      0.731427E+009
   0.26200      0.730835E+009
   0.26300      0.730244E+009
   0.26400      0.729653E+009
   0.26500      0.729063E+009
   0.26600      0.728473E+009
   0.26700      0.727884E+009
   0.26800      0.727295E+009
   0.26900      0.726707E+009
   0.27000      0.726119E+009
   0.27100      0.725532E+009
   0.27200      0.724945E+009
   0.27300      0.724358E+009
   0.27400      0.723773E+009
   0.27500      0.723151E+009
   0.27600      0.722472E+009
   0.27700      0.721792E+009
   0.27800      0.721093E+009
   0.27900      0.720389E+009
   0.28000      0.719687E+009

   0.28100      0.718986E+009
   0.28200      0.718286E+009
   0.28300      0.717587E+009
   0.28400      0.716888E+009
   0.28500      0.716190E+009
   0.28600      0.715493E+009
   0.28700      0.714796E+009
   0.28800      0.714100E+009
   0.28900      0.713405E+009
   0.29000      0.712704E+009
   0.29100      0.711971E+009
   0.29200      0.711235E+009
   0.29300      0.710502E+009
   0.29400      0.709769E+009
   0.29500      0.709038E+009
   0.29600      0.708307E+009
   0.29700      0.707577E+009
   0.29800      0.706847E+009
   0.29900      0.706119E+009
   0.30000      0.705328E+009

   0.30100      0.704484E+009
   0.30200      0.703639E+009
   0.30300      0.702798E+009
   0.30400      0.701958E+009
   0.30500      0.701119E+009
   0.30600      0.700282E+009
   0.30700      0.699445E+009
   0.30800      0.698610E+009
   0.30900      0.697775E+009
   0.31000      0.696942E+009
   0.31100      0.696110E+009
   0.31200      0.695278E+009
   0.31300      0.694448E+009
   0.31400      0.693619E+009
   0.31500      0.692791E+009
   0.31600      0.691964E+009
   0.31700      0.691137E+009
   0.31800      0.690313E+009
   0.31900      0.689489E+009
   0.32000      0.688666E+009

   0.32100      0.687844E+009
   0.32200      0.687023E+009
   0.32300      0.686203E+009
   0.32400      0.685384E+009
   0.32500      0.684566E+009
   0.32600      0.683750E+009
   0.32700      0.682935E+009
   0.32800      0.682121E+009
   0.32900      0.681307E+009
   0.33000      0.680495E+009
   0.33100      0.679684E+009
   0.33200      0.678874E+009
   0.33300      0.678065E+009
   0.33400      0.677256E+009
   0.33500      0.676449E+009
   0.33600      0.675644E+009
   0.33700      0.674840E+009
   0.33800      0.674014E+009
   0.33900      0.673114E+009
   0.34000      0.672207E+009

   0.34100      0.671306E+009
   0.34200      0.670254E+009
   0.34300      0.669121E+009
   0.34400      0.667970E+009
   0.34500      0.666834E+009
   0.34600      0.665705E+009
   0.34700      0.664580E+009
   0.34800      0.663456E+009
   0.34900      0.662333E+009
   0.35000      0.661213E+009
   0.35100      0.660095E+009
   0.35200      0.658979E+009
   0.35300      0.657866E+009
   0.35400      0.656755E+009
   0.35500      0.655646E+009
   0.35600      0.654542E+009
   0.35700      0.653439E+009
   0.35800      0.652338E+009
   0.35900      0.651240E+009
   0.36000      0.650143E+009

   0.36100      0.649050E+009
   0.36200      0.647958E+009
   0.36300      0.646868E+009
   0.36400      0.645780E+009
   0.36500      0.644689E+009
   0.36600      0.643597E+009
   0.36700      0.642518E+009
   0.36800      0.641432E+009
   0.36900      0.640297E+009
   0.37000      0.639102E+009
   0.37100      0.637939E+009
   0.37200      0.636781E+009
   0.37300      0.635624E+009
   0.37400      0.634471E+009
   0.37500      0.633319E+009
   0.37600      0.632122E+009
   0.37700      0.630828E+009
   0.37800      0.629533E+009
   0.37900      0.628258E+009
   0.38000      0.626987E+009

   0.38100      0.625718E+009
   0.38200      0.624451E+009
   0.38300      0.623187E+009
   0.38400      0.621922E+009
   0.38500      0.620636E+009
   0.38600      0.619365E+009
   0.38700      0.618097E+009
   0.38800      0.616833E+009
   0.38900      0.615571E+009
   0.39000      0.614303E+009
   0.39100      0.613000E+009
   0.39200      0.611718E+009
   0.39300      0.610386E+009
   0.39400      0.609027E+009
   0.39500      0.607542E+009
   0.39600      0.606006E+009
   0.39700      0.604480E+009
   0.39800      0.602957E+009
   0.39900      0.601443E+009
   0.40000      0.599931E+009

   0.40100      0.598423E+009
   0.40200      0.596915E+009
   0.40300      0.595417E+009
   0.40400      0.593922E+009
   0.40500      0.592432E+009
   0.40600      0.590947E+009
   0.40700      0.589468E+009
   0.40800      0.587993E+009
   0.40900      0.586524E+009
   0.41000      0.585060E+009
   0.41100      0.583601E+009
   0.41200      0.582144E+009
   0.41300      0.580675E+009
   0.41400      0.579154E+009
   0.41500      0.577643E+009
   0.41600      0.576130E+009
   0.41700      0.574628E+009
   0.41800      0.573069E+009
   0.41900      0.571446E+009
   0.42000      0.569853E+009

   0.42100      0.568259E+009
   0.42200      0.566673E+009
   0.42300      0.565083E+009
   0.42400      0.563498E+009
   0.42500      0.561922E+009
   0.42600      0.560344E+009
   0.42700      0.558753E+009
   0.42800      0.557166E+009
   0.42900      0.555584E+009
   0.43000      0.554010E+009
   0.43100      0.552392E+009
   0.43200      0.550642E+009
   0.43300      0.548808E+009
   0.43400      0.547008E+009
   0.43500      0.545210E+009
   0.43600      0.543433E+009
   0.43700      0.541660E+009
   0.43800      0.539900E+009
   0.43900      0.538146E+009
   0.44000      0.536403E+009

   0.44100      0.534669E+009
   0.44200      0.532944E+009
   0.44300      0.531228E+009
   0.44400      0.529496E+009
   0.44500      0.527720E+009
   0.44600      0.525960E+009
   0.44700      0.524138E+009
   0.44800      0.522264E+009
   0.44900      0.520427E+009
   0.45000      0.518596E+009
   0.45100      0.516782E+009
   0.45200      0.514973E+009
   0.45300      0.513168E+009
   0.45400      0.511369E+009
   0.45500      0.509568E+009
   0.45600      0.507712E+009
   0.45700      0.505703E+009
   0.45800      0.503644E+009
   0.45900      0.501647E+009
   0.46000      0.499660E+009

   0.46100      0.497689E+009
   0.46200      0.495731E+009
   0.46300      0.493788E+009
   0.46400      0.491854E+009
   0.46500      0.489931E+009
   0.46600      0.487976E+009
   0.46700      0.485961E+009
   0.46800      0.483920E+009
   0.46900      0.481892E+009
   0.47000      0.479872E+009
   0.47100      0.477880E+009
   0.47200      0.475899E+009
   0.47300      0.473927E+009
   0.47400      0.471941E+009
   0.47500      0.469802E+009
   0.47600      0.467565E+009
   0.47700      0.465428E+009
   0.47800      0.463286E+009
   0.47900      0.461185E+009
   0.48000      0.459097E+009

   0.48100      0.457022E+009
   0.48200      0.454922E+009
   0.48300      0.452732E+009
   0.48400      0.450542E+009
   0.48500      0.448388E+009
   0.48600      0.446261E+009
   0.48700      0.444156E+009
   0.48800      0.442038E+009
   0.48900      0.439780E+009
   0.49000      0.437444E+009
   0.49100      0.435195E+009
   0.49200      0.432974E+009
   0.49300      0.430776E+009
   0.49400      0.428569E+009
   0.49500      0.426298E+009
   0.49600      0.423993E+009
   0.49700      0.421759E+009
   0.49800      0.419547E+009
   0.49900      0.417308E+009
   0.50000      0.414950E+009

   0.50100      0.412557E+009
   0.50200      0.410245E+009
   0.50300      0.407966E+009
   0.50400      0.405634E+009
   0.50500      0.403241E+009
   0.50600      0.400915E+009
   0.50700      0.398604E+009
   0.50800      0.396180E+009
   0.50900      0.393665E+009
   0.51000      0.391227E+009
   0.51100      0.388734E+009
   0.51200      0.386199E+009
   0.51300      0.383279E+009
   0.51345      0.377822E+009
   0.51354      0.374409E+009