File: 4. Notched tensile specimen/Matrix/h = 1mm/Stress-2.txt
          0		0
   0.10000E-02  0.198610E+007
   0.20000E-02  0.397219E+007
   0.30000E-02  0.595828E+007
   0.40000E-02  0.794438E+007
   0.50000E-02  0.993048E+007
   0.60000E-02  0.119166E+008
   0.70000E-02  0.139027E+008
   0.80000E-02  0.158888E+008
   0.90000E-02  0.178749E+008
   0.10000E-01  0.198610E+008
   0.11000E-01  0.218470E+008
   0.12000E-01  0.238331E+008
   0.13000E-01  0.258192E+008
   0.14000E-01  0.278053E+008
   0.15000E-01  0.297914E+008
   0.16000E-01  0.317775E+008
   0.17000E-01  0.337636E+008
   0.18000E-01  0.357497E+008
   0.19000E-01  0.377358E+008
   0.20000E-01  0.397219E+008

   0.21000E-01  0.417080E+008
   0.22000E-01  0.436941E+008
   0.23000E-01  0.456802E+008
   0.24000E-01  0.476663E+008
   0.25000E-01  0.496524E+008
   0.26000E-01  0.516385E+008
   0.27000E-01  0.536246E+008
   0.28000E-01  0.556107E+008
   0.29000E-01  0.575968E+008
   0.30000E-01  0.595829E+008
   0.31000E-01  0.615689E+008
   0.32000E-01  0.635550E+008
   0.33000E-01  0.655411E+008
   0.34000E-01  0.675272E+008
   0.35000E-01  0.695133E+008
   0.36000E-01  0.714994E+008
   0.37000E-01  0.734855E+008
   0.38000E-01  0.754716E+008
   0.39000E-01  0.774577E+008
   0.40000E-01  0.794438E+008

   0.41000E-01  0.814299E+008
   0.42000E-01  0.834160E+008
   0.43000E-01  0.854021E+008
   0.44000E-01  0.873882E+008
   0.45000E-01  0.893743E+008
   0.46000E-01  0.913604E+008
   0.47000E-01  0.933465E+008
   0.48000E-01  0.953326E+008
   0.49000E-01  0.973187E+008
   0.50000E-01  0.993048E+008
   0.51000E-01  0.101291E+009
   0.52000E-01  0.103277E+009
   0.53000E-01  0.105263E+009
   0.54000E-01  0.107249E+009
   0.55000E-01  0.109235E+009
   0.56000E-01  0.111221E+009
   0.57000E-01  0.113207E+009
   0.58000E-01  0.115194E+009
   0.59000E-01  0.117180E+009
   0.60000E-01  0.119166E+009

   0.61000E-01  0.121152E+009
   0.62000E-01  0.123138E+009
   0.63000E-01  0.125124E+009
   0.64000E-01  0.127110E+009
   0.65000E-01  0.129096E+009
   0.66000E-01  0.131082E+009
   0.67000E-01  0.133068E+009
   0.68000E-01  0.135054E+009
   0.69000E-01  0.137041E+009
   0.70000E-01  0.139027E+009
   0.71000E-01  0.141013E+009
   0.72000E-01  0.142999E+009
   0.73000E-01  0.144985E+009
   0.74000E-01  0.146971E+009
   0.75000E-01  0.148957E+009
   0.76000E-01  0.150943E+009
   0.77000E-01  0.152929E+009
   0.78000E-01  0.154915E+009
   0.79000E-01  0.156902E+009
   0.80000E-01  0.158888E+009

   0.81000E-01  0.160874E+009
   0.82000E-01  0.162860E+009
   0.83000E-01  0.164846E+009
   0.84000E-01  0.166832E+009
   0.85000E-01  0.168818E+009
   0.86000E-01  0.170804E+009
   0.87000E-01  0.172790E+009
   0.88000E-01  0.174776E+009
   0.89000E-01  0.176762E+009
   0.90000E-01  0.178749E+009
   0.91000E-01  0.180735E+009
   0.92000E-01  0.182721E+009
   0.93000E-01  0.184707E+009
   0.94000E-01  0.186693E+009
   0.95000E-01  0.188679E+009
   0.96000E-01  0.190665E+009
   0.97000E-01  0.192651E+009
   0.98000E-01  0.194637E+009
   0.99000E-01  0.196623E+009
   0.10000      0.198610E+009

   0.10100      0.200596E+009
   0.10200      0.202582E+009
   0.10300      0.204568E+009
   0.10400      0.206554E+009
   0.10500      0.208540E+009
   0.10600      0.210526E+009
   0.10700      0.212512E+009
   0.10800      0.214498E+009
   0.10900      0.216484E+009
   0.11000      0.218470E+009
   0.11100      0.220457E+009
   0.11200      0.222443E+009
   0.11300      0.224429E+009
   0.11400      0.226415E+009
   0.11500      0.228401E+009
   0.11600      0.230387E+009
   0.11700      0.232373E+009
   0.11800      0.234359E+009
   0.11900      0.236345E+009
   0.12000      0.238331E+009

   0.12100      0.240317E+009
   0.12200      0.242304E+009
   0.12300      0.244290E+009
   0.12400      0.246276E+009
   0.12500      0.248262E+009
   0.12600      0.250248E+009
   0.12700      0.252234E+009
   0.12800      0.254220E+009
   0.12900      0.256206E+009
   0.13000      0.258192E+009
   0.13100      0.260178E+009
   0.13200      0.262165E+009
   0.13300      0.264151E+009
   0.13400      0.266137E+009
   0.13500      0.268123E+009
   0.13600      0.270109E+009
   0.13700      0.272095E+009
   0.13800      0.274081E+009
   0.13900      0.276067E+009
   0.14000      0.278053E+009

   0.14100      0.280039E+009
   0.14200      0.282026E+009
   0.14300      0.284012E+009
   0.14400      0.285998E+009
   0.14500      0.287984E+009
   0.14600      0.289970E+009
   0.14700      0.291956E+009
   0.14800      0.293942E+009
   0.14900      0.295928E+009
   0.15000      0.297914E+009
   0.15100      0.299900E+009
   0.15200      0.301886E+009
   0.15300      0.303873E+009
   0.15400      0.305859E+009
   0.15500      0.307845E+009
   0.15600      0.309831E+009
   0.15700      0.311817E+009
   0.15800      0.313803E+009
   0.15900      0.315789E+009
   0.16000      0.317775E+009

   0.16100      0.319761E+009
   0.16200      0.321747E+009
   0.16300      0.323733E+009
   0.16400      0.325720E+009
   0.16500      0.327706E+009
   0.16600      0.329692E+009
   0.16700      0.331678E+009
   0.16800      0.333664E+009
   0.16900      0.335650E+009
   0.17000      0.337636E+009
   0.17100      0.339622E+009
   0.17200      0.341608E+009
   0.17300      0.343594E+009
   0.17400      0.345581E+009
   0.17500      0.347567E+009
   0.17600      0.349553E+009
   0.17700      0.351539E+009
   0.17800      0.353525E+009
   0.17900      0.355511E+009
   0.18000      0.357497E+009

   0.18100      0.359483E+009
   0.18200      0.361469E+009
   0.18300      0.363455E+009
   0.18400      0.365441E+009
   0.18500      0.367428E+009
   0.18600      0.369414E+009
   0.18700      0.371400E+009
   0.18800      0.373386E+009
   0.18900      0.375372E+009
   0.19000      0.377358E+009
   0.19100      0.379688E+009
   0.19200      0.382175E+009
   0.19300      0.384662E+009
   0.19400      0.387150E+009
   0.19500      0.389637E+009
   0.19600      0.392124E+009
   0.19700      0.394611E+009
   0.19800      0.397098E+009
   0.19900      0.399585E+009
   0.20000      0.402072E+009

   0.20100      0.404559E+009
   0.20200      0.408055E+009
   0.20300      0.411590E+009
   0.20400      0.415157E+009
   0.20500      0.418700E+009
   0.20600      0.422246E+009
   0.20700      0.425792E+009
   0.20800      0.429339E+009
   0.20900      0.432885E+009
   0.21000      0.436430E+009
   0.21100      0.439976E+009
   0.21200      0.443521E+009
   0.21300      0.447066E+009
   0.21400      0.450610E+009
   0.21500      0.454155E+009
   0.21600      0.457699E+009
   0.21700      0.461242E+009
   0.21800      0.464786E+009
   0.21900      0.468329E+009
   0.22000      0.471872E+009

   0.22100      0.475415E+009
   0.22200      0.478958E+009
   0.22300      0.482500E+009
   0.22400      0.486042E+009
   0.22500      0.489584E+009
   0.22600      0.493125E+009
   0.22700      0.496666E+009
   0.22800      0.500207E+009
   0.22900      0.503748E+009
   0.23000      0.507289E+009
   0.23100      0.510829E+009
   0.23200      0.514369E+009
   0.23300      0.517909E+009
   0.23400      0.521449E+009
   0.23500      0.524988E+009
   0.23600      0.528527E+009
   0.23700      0.532066E+009
   0.23800      0.535605E+009
   0.23900      0.539143E+009
   0.24000      0.542681E+009

   0.24100      0.546219E+009
   0.24200      0.549757E+009
   0.24300      0.553295E+009
   0.24400      0.556832E+009
   0.24500      0.560369E+009
   0.24600      0.563906E+009
   0.24700      0.567442E+009
   0.24800      0.570979E+009
   0.24900      0.574515E+009
   0.25000      0.578051E+009
   0.25100      0.581587E+009
   0.25200      0.585122E+009
   0.25300      0.588658E+009
   0.25400      0.592193E+009
   0.25500      0.595728E+009
   0.25600      0.599263E+009
   0.25700      0.602797E+009
   0.25800      0.606331E+009
   0.25900      0.609866E+009
   0.26000      0.613399E+009

   0.26100      0.616933E+009
   0.26200      0.620467E+009
   0.26300      0.624000E+009
   0.26400      0.627533E+009
   0.26500      0.631066E+009
   0.26600      0.634598E+009
   0.26700      0.638131E+009
   0.26800      0.641663E+009
   0.26900      0.645195E+009
   0.27000      0.648727E+009
   0.27100      0.652259E+009
   0.27200      0.655790E+009
   0.27300      0.659321E+009
   0.27400      0.662853E+009
   0.27500      0.666882E+009
   0.27600      0.671723E+009
   0.27700      0.676567E+009
   0.27800      0.681092E+009
   0.27900      0.685600E+009
   0.28000      0.690102E+009

   0.28100      0.694603E+009
   0.28200      0.699103E+009
   0.28300      0.703604E+009
   0.28400      0.708103E+009
   0.28500      0.712603E+009
   0.28600      0.717102E+009
   0.28700      0.721601E+009
   0.28800      0.726099E+009
   0.28900      0.730597E+009
   0.29000      0.734995E+009
   0.29100      0.738936E+009
   0.29200      0.742902E+009
   0.29300      0.746853E+009
   0.29400      0.750803E+009
   0.29500      0.754753E+009
   0.29600      0.758703E+009
   0.29700      0.762652E+009
   0.29800      0.766600E+009
   0.29900      0.770549E+009
   0.30000      0.771955E+009

   0.30100      0.771524E+009
   0.30200      0.771089E+009
   0.30300      0.770659E+009
   0.30400      0.770230E+009
   0.30500      0.769801E+009
   0.30600      0.769372E+009
   0.30700      0.768944E+009
   0.30800      0.768515E+009
   0.30900      0.768088E+009
   0.31000      0.767660E+009
   0.31100      0.767233E+009
   0.31200      0.766806E+009
   0.31300      0.766379E+009
   0.31400      0.765953E+009
   0.31500      0.765527E+009
   0.31600      0.765101E+009
   0.31700      0.764675E+009
   0.31800      0.764250E+009
   0.31900      0.763830E+009
   0.32000      0.763413E+009

   0.32100      0.762995E+009
   0.32200      0.762577E+009
   0.32300      0.762160E+009
   0.32400      0.761743E+009
   0.32500      0.761331E+009
   0.32600      0.760924E+009
   0.32700      0.760518E+009
   0.32800      0.760111E+009
   0.32900      0.759704E+009
   0.33000      0.759298E+009
   0.33100      0.758892E+009
   0.33200      0.758487E+009
   0.33300      0.758081E+009
   0.33400      0.757676E+009
   0.33500      0.757273E+009
   0.33600      0.756872E+009
   0.33700      0.756472E+009
   0.33800      0.756027E+009
   0.33900      0.755438E+009
   0.34000      0.754838E+009

   0.34100      0.754245E+009
   0.34200      0.753348E+009
   0.34300      0.752353E+009
   0.34400      0.751286E+009
   0.34500      0.750257E+009
   0.34600      0.749233E+009
   0.34700      0.748216E+009
   0.34800      0.747197E+009
   0.34900      0.746177E+009
   0.35000      0.745157E+009
   0.35100      0.744138E+009
   0.35200      0.743120E+009
   0.35300      0.742103E+009
   0.35400      0.741086E+009
   0.35500      0.740071E+009
   0.35600      0.739066E+009
   0.35700      0.738058E+009
   0.35800      0.737049E+009
   0.35900      0.736041E+009
   0.36000      0.735036E+009

   0.36100      0.734031E+009
   0.36200      0.733028E+009
   0.36300      0.732027E+009
   0.36400      0.731032E+009
   0.36500      0.730022E+009
   0.36600      0.729002E+009
   0.36700      0.728025E+009
   0.36800      0.727023E+009
   0.36900      0.726002E+009
   0.37000      0.724779E+009
   0.37100      0.723658E+009
   0.37200      0.722542E+009
   0.37300      0.721424E+009
   0.37400      0.720308E+009
   0.37500      0.719194E+009
   0.37600      0.718051E+009
   0.37700      0.716696E+009
   0.37800      0.715347E+009
   0.37900      0.714058E+009
   0.38000      0.712761E+009

   0.38100      0.711463E+009
   0.38200      0.710166E+009
   0.38300      0.708871E+009
   0.38400      0.707588E+009
   0.38500      0.706225E+009
   0.38600      0.704905E+009
   0.38700      0.703588E+009
   0.38800      0.702272E+009
   0.38900      0.700959E+009
   0.39000      0.699653E+009
   0.39100      0.698230E+009
   0.39200      0.696866E+009
   0.39300      0.695431E+009
   0.39400      0.693957E+009
   0.39500      0.692302E+009
   0.39600      0.690618E+009
   0.39700      0.688935E+009
   0.39800      0.687260E+009
   0.39900      0.685585E+009
   0.40000      0.683913E+009

   0.40100      0.682246E+009
   0.40200      0.680574E+009
   0.40300      0.678930E+009
   0.40400      0.677278E+009
   0.40500      0.675630E+009
   0.40600      0.673986E+009
   0.40700      0.672350E+009
   0.40800      0.670718E+009
   0.40900      0.669092E+009
   0.41000      0.667471E+009
   0.41100      0.665855E+009
   0.41200      0.664240E+009
   0.41300      0.662602E+009
   0.41400      0.660877E+009
   0.41500      0.659210E+009
   0.41600      0.657516E+009
   0.41700      0.655833E+009
   0.41800      0.654063E+009
   0.41900      0.652193E+009
   0.42000      0.650393E+009

   0.42100      0.648583E+009
   0.42200      0.646773E+009
   0.42300      0.644948E+009
   0.42400      0.643147E+009
   0.42500      0.641351E+009
   0.42600      0.639547E+009
   0.42700      0.637717E+009
   0.42800      0.635912E+009
   0.42900      0.634107E+009
   0.43000      0.632308E+009
   0.43100      0.630455E+009
   0.43200      0.628430E+009
   0.43300      0.626243E+009
   0.43400      0.624138E+009
   0.43500      0.622018E+009
   0.43600      0.619934E+009
   0.43700      0.617848E+009
   0.43800      0.615785E+009
   0.43900      0.613726E+009
   0.44000      0.611683E+009

   0.44100      0.609649E+009
   0.44200      0.607627E+009
   0.44300      0.605616E+009
   0.44400      0.603589E+009
   0.44500      0.601494E+009
   0.44600      0.599416E+009
   0.44700      0.597262E+009
   0.44800      0.595028E+009
   0.44900      0.592843E+009
   0.45000      0.590665E+009
   0.45100      0.588514E+009
   0.45200      0.586367E+009
   0.45300      0.584227E+009
   0.45400      0.582093E+009
   0.45500      0.579955E+009
   0.45600      0.577732E+009
   0.45700      0.575317E+009
   0.45800      0.572824E+009
   0.45900      0.570419E+009
   0.46000      0.568015E+009

   0.46100      0.565641E+009
   0.46200      0.563283E+009
   0.46300      0.560945E+009
   0.46400      0.558616E+009
   0.46500      0.556302E+009
   0.46600      0.553945E+009
   0.46700      0.551500E+009
   0.46800      0.549022E+009
   0.46900      0.546567E+009
   0.47000      0.544116E+009
   0.47100      0.541705E+009
   0.47200      0.539308E+009
   0.47300      0.536919E+009
   0.47400      0.534512E+009
   0.47500      0.531901E+009
   0.47600      0.529144E+009
   0.47700      0.526537E+009
   0.47800      0.523913E+009
   0.47900      0.521347E+009
   0.48000      0.518797E+009

   0.48100      0.516265E+009
   0.48200      0.513698E+009
   0.48300      0.511007E+009
   0.48400      0.508317E+009
   0.48500      0.505675E+009
   0.48600      0.503068E+009
   0.48700      0.500492E+009
   0.48800      0.497898E+009
   0.48900      0.495115E+009
   0.49000      0.492215E+009
   0.49100      0.489442E+009
   0.49200      0.486703E+009
   0.49300      0.483997E+009
   0.49400      0.481278E+009
   0.49500      0.478474E+009
   0.49600      0.475615E+009
   0.49700      0.472858E+009
   0.49800      0.470129E+009
   0.49900      0.467364E+009
   0.50000      0.464436E+009

   0.50100      0.461455E+009
   0.50200      0.458590E+009
   0.50300      0.455766E+009
   0.50400      0.452872E+009
   0.50500      0.449890E+009
   0.50600      0.447002E+009
   0.50700      0.444133E+009
   0.50800      0.441112E+009
   0.50900      0.437959E+009
   0.51000      0.434914E+009
   0.51100      0.431796E+009
   0.51200      0.428614E+009
   0.51300      0.424901E+009
   0.51345      0.417611E+009
   0.51354      0.413106E+009